"Time","Events","Fp1","Fpz","Fp2","F7","F3","Fz","F4","F8","FC5","FC1","FC2","FC6","A1","T3","C3","Cz","C4","T4","A2","CP5","CP1","CP2","CP6","T5","P3","Pz","P4","T6","POz","O1","Oz","O2","AF7","AF3","AF4","AF8","F5","F1","F2","F6","FC3","FCz","FC4","C5","C1","C2","C6","CP3","CPz","CP4","P5","P1","P2","P6","PO5","PO3","PO4","PO6","FT7","FT8","TP7","TP8","PO7","PO8","BIP65","BIP66","BIP67","BIP68","AUX69","AUX70","AUX71","AUX72","Digi","Saw"
1:05:06.936,,-3526.2457,-2821.3202,-3148.6806,-1758.1759,-1405.1799,10874.2092,-1420.8114,-1065.7557,-906.5718,8929.1725,674.8578,-2103.816,1832.8209,-1590.6982,-177.2796,-150.706,3191.6764,-3817.9111,-3028.833,-4698.9944,-296.5571,3099.2851,2204.961,-56.5676,302.2213,-4613.4257,1657.5826,2886.7886,798.549,344.316,415.7427,621.7107,-2036.2327,-2789.34,-3024.4745,-2191.9409,-1808.9875,2764.4399,331.5349,-1846.8893,1215.7077,12153.0314,-1806.8359,-1817.0975,5322.5073,-1127.0311,-3009.8913,-2173.8819,-1025.4632,10262.521,-217.6273,1455.6972,-2761.7366,2852.8591,-826.6857,600.2312,-4273.0268,915.2887,-3650.9667,-2634.1468,-1676.7082,1323.9513,-520.5289,775.8189,7035.2967,4471.1055,-39492224,-39492224,38.6835,715.1359,-1048573.3125,-1048573.3125,200,10626
1:05:06.937,,-3532.9948,-2823.9132,-3150.1518,-1761.5045,-1408.7659,10868.6738,-1422.8343,-1063.3098,-911.3716,8928.8782,676.5681,-2107.4388,1833.6117,-1601.1621,-181.1415,-148.959,3195.7958,-3827.2348,-3036.0051,-4697.7622,-298.672,3103.2757,2206.1747,-55.7769,302.3684,-4609.0857,1660.5434,2894.7883,801.5649,341.0425,413.2417,635.5952,-2038.7522,-2794.5076,-3025.9274,-2195.0304,-1813.2724,2764.0538,331.3326,-1848.949,1214.8986,12149.2063,-1807.5347,-1820.8674,5323.4084,-1126.5162,-3000.5859,-2174.6175,-1025.8861,10268.3874,-218.1054,1455.4214,-2757.2311,2860.8403,-825.4903,603.3943,-4266.719,928.4743,-3658.6169,-2634.2204,-1680.2391,1323.5467,-519.5175,786.4667,7033.3106,4456.136,-39492224,-39492224,38.6884,714.8209,-1048573.3125,-1048573.3125,200,10627
1:05:06.937,,-3532.8293,-2824.3178,-3152.6528,-1762.2401,-1411.0279,10865.6211,-1423.8641,-1062.8684,-911.0038,8930.2207,676.9359,-2107.917,1844.4802,-1613.7777,-179.0083,-144.4351,3198.7566,-3845.5697,-3041.0807,-4698.4427,-295.2331,3106.1997,2195.8763,-47.2991,305.9544,-4609.196,1665.0306,2882.6693,803.7166,342.4954,415.3014,641.6639,-2040.7199,-2794.7651,-3027.1227,-2193.927,-1814.762,2765.0836,329.6407,-1849.5375,1216.2226,12151.4683,-1808.9691,-1825.8327,5324.3647,-1121.9923,-2996.4482,-2172.0797,-1024.1023,10269.7667,-208.0461,1458.0144,-2753.7738,2850.4132,-823.7617,601.353,-4264.0341,931.3799,-3662.6811,-2637.3099,-1676.9657,1312.9173,-517.9911,792.5538,7024.0604,4444.4216,-39492224,-39492224,38.6703,714.9596,-1048573.3125,-1048573.3125,200,10628
1:05:06.937,,-3532.0018,-2823.5638,-3151.5127,-1759.5184,-1407.5338,10866.3935,-1421.1608,-1059.3376,-912.9899,8930.9747,680.0622,-2107.6411,1856.9118,-1618.8901,-176.3233,-145.0235,3199.3267,-3861.8816,-3040.7681,-4693.2751,-291.1689,3103.8826,2172.4291,-36.8903,312.4829,-4607.4673,1661.6468,2849.6224,805.9417,350.5134,419.6966,634.9147,-2037.6672,-2792.9077,-3027.987,-2191.757,-1811.5621,2767.695,333.7049,-1848.9306,1215.91,12153.6199,-1807.3692,-1822.5777,5326.3692,-1121.6429,-2993.9839,-2166.8753,-1021.0864,10268.553,-198.5568,1462.6119,-2753.2037,2821.0076,-818.263,608.2125,-4265.0639,928.8973,-3663.7293,-2636.9421,-1670.3453,1288.9551,-509.1639,786.6506,7006.1302,4435.6128,-39492224,-39492224,38.6635,715.0123,-1048573.3125,-1048573.3125,200,10629
1:05:06.938,,-3525.5837,-2817.5135,-3147.3014,-1756.8519,-1401.6674,10868.0118,-1418.4575,-1050.8046,-905.1926,8934.5056,681.1656,-2100.0828,1860.0565,-1616.5178,-172.6269,-142.3202,3199.6209,-3870.2123,-3032.3087,-4687.5374,-289.4586,3104.0113,2156.5033,-31.925,312.0047,-4608.3685,1656.608,2822.865,804.6177,346.0446,415.3014,619.412,-2033.1984,-2788.6228,-3021.5138,-2186.4974,-1807.1117,2774.4993,338.5783,-1843.5423,1219.6432,12155.7715,-1802.6797,-1816.7665,5328.3002,-1121.698,-2994.4253,-2166.1213,-1021.3806,10263.9555,-192.1939,1462.5567,-2757.1391,2794.5628,-818.7412,606.3367,-4270.1396,912.475,-3654.332,-2628.3723,-1664.5341,1268.2112,-513.504,772.0122,6994.8755,4413.3057,-39492224,-39492224,38.7436,714.778,-1048573.3125,-1048573.3125,200,10630
1:05:06.938,,-3522.1079,-2816.4101,-3144.8003,-1753.2474,-1401.5754,10872.5173,-1417.9793,-1048.6897,-902.287,8938.3307,682.7287,-2099.4576,1854.1717,-1610.8169,-170.3833,-144.619,3197.3405,-3873.7799,-3027.5641,-4685.4409,-290.7091,3100.5908,2144.2188,-29.9573,312.5197,-4609.8029,1651.6611,2823.0305,800.5167,340.1047,412.1751,606.1896,-2028.0124,-2784.1172,-3017.7438,-2183.3895,-1801.2821,2777.3497,341.962,-1838.6138,1224.4798,12157.1692,-1799.1305,-1812.6839,5328.5025,-1119.289,-2999.078,-2164.503,-1021.0496,10262.4843,-188.5711,1462.1889,-2762.0125,2794.6363,-820.0285,603.7805,-4276.5025,896.9906,-3643.1509,-2624.3082,-1654.4931,1257.9863,-515.3981,760.3897,6997.9466,4393.1135,-39492224,-39492224,38.8358,714.8507,-1048573.3125,-1048573.3125,200,10631
1:05:06.939,,-3521.685,-2812.7321,-3143.182,-1749.6614,-1399.056,10872.0024,-1415.9564,-1050.4184,-899.7491,8937.8158,680.5771,-2098.8323,1850.7696,-1602.854,-169.2616,-146.3108,3193.3131,-3873.596,-3009.3396,-4682.425,-291.647,3096.7289,2134.8215,-28.1367,313.0162,-4613.7199,1642.3741,2830.4417,800.7742,339.7001,411.7337,598.7784,-2024.1505,-2780.9726,-3014.8014,-2181.8999,-1800.381,2777.552,344.5918,-1839.2207,1226.1349,12157.1876,-1800.0316,-1807.0933,5330.7277,-1122.4888,-3010.02,-2163.2341,-1022.3369,10256.8201,-186.8976,1458.0511,-2764.1641,2800.3188,-819.9549,600.4703,-4281.8908,892.0805,-3637.8914,-2621.991,-1650.7967,1255.9634,-514.4235,751.5809,7016.2447,4387.3758,-39492224,-39492224,38.7631,714.9767,-1048573.3125,-1048573.3125,200,10632
1:05:06.939,,-3518.4667,-2814.8837,-3145.444,-1751.9049,-1398.2652,10877.3539,-1417.2069,-1056.763,-898.5538,8939.4893,679.0691,-2102.2896,1845.4181,-1591.6361,-166.2272,-147.2671,3188.2927,-3872.8236,-2996.9079,-4680.7331,-291.7757,3090.1452,2137.8191,-26.7207,316.3448,-4613.2234,1633.8779,2828.713,798.8248,338.9645,413.3152,594.0706,-2022.9184,-2779.2439,-3013.3486,-2180.0609,-1796.5375,2778.6186,344.1872,-1838.0069,1227.4957,12158.53,-1802.6613,-1802.9004,5331.0403,-1127.4909,-3023.4447,-2159.2802,-1024.5069,10251.1008,-184.5436,1460.5706,-2768.4306,2797.4868,-817.0861,603.192,-4284.0976,888.3657,-3635.1329,-2626.7908,-1641.7305,1261.8298,-510.6903,746.5972,7031.9314,4366.6503,-39492224,-39492224,38.7055,714.8561,-1048573.3125,-1048573.3125,200,10633
1:05:06.940,,-3517.8231,-2816.0423,-3147.7979,-1750.4889,-1395.9849,10877.7585,-1423.2021,-1063.5305,-897.7078,8937.9629,671.9338,-2105.7469,1837.069,-1585.4754,-167.7904,-151.8646,3182.224,-3866.0929,-3014.5072,-4679.2619,-293.2469,3084.6098,2153.1931,-24.7162,317.0988,-4614.5659,1629.5747,2840.9607,796.3238,338.5047,415.8715,594.9165,-2021.0242,-2775.9889,-3013.0727,-2181.7896,-1795.1766,2779.3358,342.8632,-1838.8161,1226.613,12157.022,-1805.6405,-1798.873,5331.7207,-1128.5207,-3041.8715,-2159.9055,-1025.4264,10245.3264,-182.3552,1464.2118,-2768.4857,2811.4264,-811.5139,605.454,-4282.2954,887.8508,-3636.6776,-2630.4136,-1636.1215,1282.868,-507.2514,745.2915,7041.2367,4370.788,-39492224,-39492224,38.8563,714.6637,-1048573.3125,-1048573.3125,200,10634
1:05:06.940,,-3518.2644,-2814.9757,-3146.7129,-1752.0521,-1395.9481,10878.0527,-1422.8895,-1064.6155,-902.0663,8937.9629,671.2718,-2108.156,1826.6603,-1588.4178,-165.9146,-153.5197,3177.5161,-3855.4267,-3043.1772,-4677.9194,-291.6654,3081.5203,2178.6265,-28.008,318.901,-4618.1335,1631.5424,2855.5072,796.4893,335.1577,411.7153,596.3693,-2019.4978,-2777.0739,-3013.4589,-2182.2493,-1793.6502,2778.0853,341.6862,-1839.3678,1226.2084,12158.1254,-1808.16,-1794.2203,5332.585,-1132.5298,-3061.8614,-2160.0526,-1024.6356,10243.2115,-183.4402,1462.5015,-2769.0926,2827.3521,-812.7093,605.785,-4277.3485,888.9174,-3644.1256,-2632.9147,-1638.457,1308.4117,-507.0491,750.4223,7035.0209,4388.6999,-39492224,-39492224,38.8959,714.5509,-1048573.3125,-1048573.3125,200,10635
1:05:06.941,,-3518.7977,-2815.5274,-3150.3357,-1751.9969,-1397.1986,10878.9722,-1419.3034,-1061.2317,-902.618,8936.9698,671.3269,-2105.563,1817.4469,-1599.2679,-169.8684,-155.0645,3179.1528,-3846.3236,-3052.5929,-4683.7307,-296.833,3084.1869,2194.6258,-34.9778,312.1335,-4615.2463,1642.135,2868.9687,793.6756,321.9537,402.5755,603.9092,-2016.8865,-2775.7314,-3010.6269,-2178.9575,-1792.5285,2779.1152,339.2955,-1838.3747,1224.6453,12155.5876,-1807.2405,-1795.195,5332.0701,-1132.5849,-3065.9624,-2163.5283,-1024.1023,10250.4756,-190.2262,1461.3981,-2767.9157,2841.3285,-820.5618,601.4633,-4275.4911,900.5399,-3650.5989,-2629.9723,-1650.9071,1324.1719,-512.75,759.5438,7012.1437,4411.6874,-39492224,-39492224,38.7572,714.777,-1048573.3125,-1048573.3125,200,10636
1:05:06.941,,-3518.0254,-2814.663,-3146.6393,-1752.8612,-1395.0286,10883.349,-1419.8183,-1059.2824,-903.6294,8939.5261,671.6212,-2105.232,1814.7068,-1601.4012,-169.4455,-154.6783,3182.9228,-3856.622,-3046.0828,-4686.103,-295.8215,3087.0557,2188.3732,-42.628,313.1633,-4614.2349,1642.981,2868.9503,791.4688,315.8482,395.8999,611.5411,-2016.5738,-2775.5659,-3010.8476,-2177.6518,-1790.4504,2780.2921,341.631,-1835.5059,1226.2452,12155.3853,-1808.0128,-1795.8387,5332.1805,-1132.3275,-3065.5394,-2161.5422,-1024.1575,10254.4478,-197.1408,1459.5959,-2765.0468,2841.4757,-820.5066,599.5508,-4273.2659,908.2085,-3655.3067,-2628.0781,-1659.2745,1313.6896,-513.3568,768.0767,6979.3727,4436.7162,-39492224,-39492224,38.4691,714.6471,-1048573.3125,-1048573.3125,200,10637
1:05:06.942,,-3514.3841,-2813.4861,-3143.7889,-1748.3189,-1394.7528,10886.5857,-1420.3884,-1059.4663,-900.4296,8941.549,670.9408,-2103.6505,1814.2103,-1594.744,-166.5766,-154.0714,3181.47,-3877.0166,-3037.5682,-4685.2387,-298.0283,3083.911,2167.8132,-46.7842,313.9357,-4614.6578,1640.388,2855.5624,791.193,318.0734,396.0103,615.6972,-2011.2223,-2770.2696,-3005.3673,-2174.6359,-1787.2505,2780.8806,343.1206,-1833.6853,1227.4957,12156.9117,-1805.7509,-1789.1999,5333.3574,-1131.4631,-3062.3212,-2160.4388,-1021.8955,10252.7927,-199.0901,1461.1223,-2765.4882,2829.3015,-818.5757,601.353,-4272.7693,910.3234,-3653.7252,-2630.0274,-1663.8904,1295.0606,-509.2375,771.0743,6966.04,4458.7658,-39492224,-39492224,38.6972,714.4449,-1048573.3125,-1048573.3125,200,10638
1:05:06.942,,-3512.8762,-2812.2172,-3147.7427,-1747.6752,-1390.192,10888.4799,-1419.4873,-1065.1488,-896.1815,8942.5972,671.1063,-2105.8205,1808.491,-1580.0504,-162.917,-154.7335,3179.0425,-3889.3195,-3025.6147,-4684.8341,-295.6928,3081.1157,2155.5471,-46.9129,316.4735,-4614.2165,1637.5008,2843.6825,792.6274,327.1949,405.9409,613.3617,-2009.1994,-2767.7869,-3004.5582,-2175.7944,-1781.4945,2782.6093,341.3736,-1833.6301,1230.1807,12157.8312,-1807.5899,-1781.1083,5334.1298,-1133.0815,-3064.0498,-2158.4527,-1020.6082,10248.4343,-199.8993,1463.8072,-2768.688,2818.9479,-819.1274,603.2839,-4271.151,908.0798,-3649.1277,-2631.609,-1664.4973,1282.6289,-508.5571,767.8744,6979.4095,4488.907,-39492224,-39492224,38.5087,714.379,-1048573.3125,-1048573.3125,200,10639
1:05:06.943,,-3510.5222,-2809.5506,-3145.4072,-1744.8616,-1387.4703,10892.1395,-1418.5678,-1064.2293,-892.6322,8943.4615,673.9383,-2104.6987,1781.237,-1577.1264,-162.1078,-155.5058,3182.4446,-3894.6158,-3011.8222,-4688.6408,-297.9732,3080.1043,2152.7886,-57.763,313.715,-4614.9153,1637.2801,2848.1328,792.4803,332.7119,410.6671,609.132,-2006.9191,-2766.7939,-3003.326,-2173.8635,-1779.4164,2782.9587,341.9069,-1831.552,1231.4863,12160.1851,-1803.8383,-1780.2991,5338.0653,-1132.4746,-3062.266,-2160.825,-1021.3622,10248.8757,-209.8851,1463.3475,-2768.1915,2823.4718,-823.4674,601.8311,-4270.912,903.4455,-3639.1603,-2628.4827,-1674.4095,1282.2979,-514.6074,763.2218,6992.2457,4514.8553,-39492224,-39492224,38.558,714.3419,-1048573.3125,-1048573.3125,200,10640
1:05:06.943,,-3511.2395,-2810.5621,-3146.3451,-1745.0639,-1389.6036,10894.9531,-1420.131,-1067.0797,-896.0895,8942.4501,673.2027,-2104.6619,1752.2544,-1575.7287,-160.1033,-156.2966,3186.0123,-3891.5998,-3009.5786,-4694.3601,-300.9891,3081.079,2160.3468,-66.0017,309.9818,-4615.5957,1639.4501,2863.2678,789.0229,331.5349,410.3728,606.7413,-2003.7744,-2762.8584,-3001.3215,-2169.2476,-1779.0118,2784.2828,343.9482,-1829.9889,1232.1484,12161.0127,-1805.3831,-1778.6808,5338.0285,-1131.1689,-3060.3718,-2161.6525,-1019.5048,10251.6893,-218.3077,1459.4856,-2765.0652,2837.3195,-829.7384,598.7416,-4269.9925,901.0364,-3627.2252,-2629.2918,-1675.5864,1291.9894,-521.3013,760.9046,6990.1309,4551.2307,-39492224,-39492224,38.5482,714.3116,-1048573.3125,-1048573.3125,200,10641
1:05:06.944,,-3511.405,-2812.0517,-3145.4991,-1746.8293,-1390.2656,10896.3324,-1420.0022,-1073.3323,-896.8435,8943.2408,671.8051,-2104.4045,1716.2651,-1560.0789,-160.6366,-157.3081,3185.0928,-3886.9839,-3008.2178,-4692.3924,-303.3798,3080.4537,2171.8038,-69.5326,309.3198,-4617.8577,1639.6708,2877.8143,785.4185,320.9791,405.4259,597.9141,-2003.425,-2762.2148,-3000.2181,-2170.351,-1775.7752,2787.0413,339.461,-1830.3751,1234.6678,12160.0012,-1805.2359,-1775.0947,5336.7412,-1131.6286,-3061.8982,-2163.3996,-1019.0451,10254.172,-220.7536,1458.8235,-2765.7824,2851.2591,-830.2533,597.4543,-4269.9925,892.8897,-3617.0555,-2631.0389,-1662.4376,1304.4946,-518.9106,753.7141,6989.6895,4588.2866,-39492224,-39492224,38.6474,714.1896,-1048573.3125,-1048573.3125,200,10642
1:05:06.944,,-3512.3612,-2812.6769,-3147.7427,-1749.3671,-1390.946,10893.4819,-1421.8044,-1075.392,-897.4504,8944.473,669.5799,-2107.4572,1679.4851,-1553.2378,-157.1425,-157.8598,3181.047,-3885.1082,-3016.5668,-4683.8962,-299.9225,3077.9159,2175.9783,-53.8827,316.7861,-4617.7841,1637.041,2874.6144,790.9355,318.8274,403.8812,591.1649,-2006.7903,-2763.9802,-3003.1789,-2173.5693,-1778.9382,2784.0437,338.8725,-1833.7956,1233.3437,12161.1046,-1806.6152,-1772.704,5340.4008,-1134.9388,-3071.7185,-2155.8597,-1022.484,10248.655,-206.7772,1461.9314,-2768.6513,2850.4868,-808.2221,601.353,-4271.8315,886.9497,-3613.0833,-2633.7422,-1648.829,1307.9704,-499.2517,746.0455,6994.379,4606.0881,-39492224,-39492224,38.6967,714.2013,-1048573.3125,-1048573.3125,200,10643
1:05:06.945,,-3511.0372,-2810.7092,-3148.4048,-1747.6017,-1390.9276,10895.7439,-1424.2503,-1077.9482,-896.4941,8942.7811,667.4467,-2109.0571,1653.8311,-1554.5251,-158.5586,-162.1262,3175.7875,-3884.5013,-3030.4697,-4680.2182,-298.5616,3076.2056,2178.4242,-41.1384,324.1421,-4617.1221,1640.2041,2880.5912,794.0618,312.3358,395.4034,589.1053,-2006.3122,-2763.1894,-3002.1675,-2173.3302,-1779.9129,2780.4944,337.8795,-1833.8876,1232.2587,12159.0266,-1811.3414,-1773.55,5337.3664,-1137.9732,-3088.1223,-2154.9034,-1022.1898,10247.9745,-194.2352,1464.4325,-2766.849,2854.3303,-795.7537,606.5941,-4271.6659,884.3015,-3607.2353,-2635.4525,-1640.5535,1312.3656,-486.2868,745.9536,6998.7926,4615.4854,-39492224,-39492224,38.6684,714.1842,-1048573.3125,-1048573.3125,200,10644
1:05:06.945,,-3511.5889,-2809.2932,-3146.9336,-1744.9719,-1387.3048,10896.4979,-1421.8412,-1074.4725,-896.0344,8944.2523,669.1018,-2106.409,1665.7662,-1562.1753,-157.0322,-159.4965,3175.2725,-3888.6206,-3053.5491,-4678.3792,-296.6859,3079.1112,2178.0564,-33.5617,324.7674,-4617.2692,1642.65,2874.9455,792.8297,311.8576,393.3805,588.0938,-2005.8525,-2763.0423,-2999.7952,-2171.9877,-1777.6326,2781.5426,339.6265,-1831.3865,1231.3208,12158.7507,-1807.0566,-1781.1634,5337.7159,-1138.1203,-3096.4162,-2155.2712,-1021.3438,10248.3791,-183.0908,1464.8003,-2766.3525,2846.349,-802.3189,604.608,-4273.6705,884.228,-3604.7342,-2636.5559,-1637.7766,1310.9311,-492.7968,748.2339,7009.2197,4630.6571,-39492224,-39492224,38.7338,714.2545,-1048573.3125,-1048573.3125,200,10645
1:05:06.946,,-3511.9199,-2811.3712,-3146.9152,-1747.4546,-1389.7139,10895.0819,-1419.6712,-1071.7692,-898.7561,8943.7741,670.7569,-2105.7653,1716.541,-1574.2575,-159.3861,-157.2713,3174.3898,-3887.8483,-3070.9829,-4678.9125,-297.8077,3082.5134,2182.2493,-34.8858,320.1331,-4612.6165,1646.8797,2871.2491,791.0642,321.402,397.8125,599.9002,-2008.5926,-2767.0881,-3000.8618,-2173.6244,-1779.5451,2778.4347,338.045,-1832.1957,1229.0221,12160.8656,-1806.5784,-1791.0756,5335.0493,-1136.2629,-3100.0574,-2156.5953,-1022.153,10249.6848,-185.4999,1463.1819,-2765.7456,2844.0503,-823.8352,602.8058,-4268.3741,895.8872,-3605.7824,-2633.5215,-1633.3998,1312.6598,-513.9453,759.415,7013.3575,4638.5648,-39492224,-39492224,38.7577,714.152,-1048573.3125,-1048573.3125,200,10646
1:05:06.946,,-3517.9886,-2816.9618,-3152.2483,-1751.8498,-1396.4262,10889.5281,-1423.8457,-1077.9482,-900.8709,8941.1812,671.8051,-2108.1009,1791.8112,-1587.8661,-161.0044,-154.9541,3175.8794,-3887.646,-3084.2788,-4676.9815,-295.748,3083.3777,2184.1251,-19.6957,322.8916,-4611.3292,1648.829,2865.7872,795.6801,332.9326,405.7018,604.8655,-2015.7647,-2773.6717,-3010.3694,-2178.6633,-1787.6735,2775.382,333.4475,-1840.1769,1223.5786,12156.8749,-1811.2311,-1805.1992,5333.7988,-1136.3365,-3096.3427,-2156.8711,-1020.3324,10251.2112,-170.273,1461.8579,-2765.3227,2842.2664,-819.4768,603.6885,-4265.8547,902.8754,-3614.4074,-2639.6822,-1632.7745,1314.9769,-508.5203,761.1989,7027.3155,4642.2796,-39492224,-39492224,38.7089,714.1163,-1048573.3125,-1048573.3125,200,10647
1:05:06.947,,-3522.3838,-2820.603,-3156.6986,-1757.5691,-1399.8284,10884.949,-1427.4318,-1082.9687,-906.3328,8939.5077,669.7086,-2111.834,1835.4507,-1598.6059,-163.5423,-158.7609,3177.5713,-3885.5311,-3069.291,-4678.3976,-293.9458,3079.7549,2184.5849,-2.6114,329.4385,-4612.543,1638.2915,2861.0978,803.1097,345.0883,418.0415,593.0407,-2019.2955,-2776.5406,-3013.1831,-2180.9988,-1791.0389,2773.5062,333.3187,-1841.8688,1221.004,12150.8982,-1815.8654,-1814.9275,5333.2655,-1138.7272,-3085.1064,-2155.6022,-1021.0864,10249.7216,-154.9541,1466.4554,-2767.7685,2833.3841,-792.2964,610.456,-4270.5442,887.3175,-3626.6183,-2640.4546,-1642.3005,1318.2688,-483.8777,745.7513,7033.6049,4637.3695,-39492224,-39492224,38.5937,713.9723,-1048573.3125,-1048573.3125,200,10648
1:05:06.947,,-3523.5056,-2820.5294,-3153.462,-1757.4955,-1399.1664,10882.1353,-1429.1053,-1080.0079,-908.8154,8939.5261,670.2235,-2113.342,1835.7817,-1593.4199,-162.917,-157.4184,3178.9322,-3883.0853,-3045.3104,-4674.2782,-291.7941,3078.5044,2181.8815,1.5448,334.5877,-4613.4441,1628.2506,2847.3237,808.5899,342.4402,418.5012,579.5792,-2021.1162,-2776.4486,-3013.8819,-2183.978,-1792.4917,2774.8487,333.4107,-1841.7217,1220.6179,12151.4131,-1812.9414,-1824.3248,5332.9345,-1138.8375,-3075.5436,-2153.7448,-1022.0978,10244.4069,-149.5107,1468.9748,-2772.2189,2822.6995,-768.9778,617.8672,-4277.2933,872.4216,-3628.8067,-2641.1718,-1645.5188,1312.0713,-461.589,730.6531,7037.6139,4634.9788,-39492224,-39492224,38.7445,714.1627,-1048573.3125,-1048573.3125,200,10649
1:05:06.948,,-3522.77,-2822.3317,-3154.0689,-1756.0979,-1398.6698,10884.3237,-1427.6341,-1079.6217,-908.3189,8938.6985,670.2787,-2113.5627,1821.4191,-1583.9859,-169.0041,-157.1977,3181.4516,-3882.1474,-3032.2719,-4678.4344,-295.7664,3078.4492,2180.8517,-3.255,331.8659,-4610.0052,1633.3998,2848.6661,811.3852,332.3809,413.0394,584.8756,-2022.0357,-2777.5152,-3012.9992,-2184.401,-1791.9032,2773.3775,332.7119,-1841.4275,1217.1054,12151.7625,-1814.0448,-1834.6599,5330.2127,-1135.3802,-3069.1622,-2157.8642,-1024.1575,10246.0252,-155.3403,1469.3978,-2768.6145,2823.0489,-770.9272,621.8578,-4275.0313,880.0351,-3621.2668,-2638.965,-1648.8658,1306.4992,-463.0418,740.7676,7039.6184,4636.9097,-39492224,-39492224,38.559,714.1627,-1048573.3125,-1048573.3125,200,10650
1:05:06.948,,-3523.6343,-2819.7938,-3153.793,-1756.4841,-1401.0605,10880.2411,-1428.9765,-1079.9344,-907.5281,8933.678,671.3821,-2111.2455,1821.272,-1577.6413,-180.1117,-158.6689,3185.387,-3877.9544,-3022.5988,-4685.1651,-299.334,3083.1386,2177.1369,-13.7373,325.6685,-4610.6488,1644.489,2858.0634,810.2634,328.1695,410.5016,609.5917,-2022.2747,-2777.8279,-3017.5231,-2183.8493,-1794.5881,2771.1155,331.5901,-1843.5055,1213.078,12149.1327,-1813.916,-1838.5402,5325.3578,-1134.5159,-3061.7879,-2166.4155,-1021.0128,10252.2226,-166.7605,1464.8922,-2762.0676,2830.4417,-791.6343,616.727,-4267.1236,905.4684,-3617.3314,-2637.2915,-1660.2124,1305.3774,-483.6202,766.6239,7036.7495,4658.6283,-39492224,-39492224,38.6615,714.0162,-1048573.3125,-1048573.3125,200,10651
1:05:06.949,,-3524.7377,-2819.7571,-3153.1126,-1754.7922,-1401.0421,10877.5378,-1426.1445,-1079.5114,-905.4684,8933.2918,671.4189,-2110.5467,1834.3105,-1573.8162,-185.5551,-158.1356,3184.9825,-3873.1547,-3013.79,-4694.5256,-299.3892,3088.0304,2174.1393,-29.9021,320.8503,-4610.7592,1651.9001,2857.052,807.3394,342.5505,422.1424,623.6968,-2025.0884,-2780.0163,-3016.8243,-2186.6997,-1796.4087,2770.9132,330.689,-1841.7769,1215.3031,12148.1581,-1812.8126,-1835.8921,5321.3855,-1134.6078,-3060.1328,-2174.7462,-1024.0104,10253.5099,-184.2126,1462.4096,-2761.2217,2828.8601,-811.6794,612.6996,-4260.209,920.6218,-3613.5246,-2637.549,-1661.8859,1301.2212,-501.9734,781.4463,7041.6781,4668.3199,-39492224,-39492224,38.7743,713.9894,-1048573.3125,-1048573.3125,200,10652
1:05:06.949,,-3523.2481,-2821.3202,-3153.0942,-1754.8841,-1399.7364,10880.9951,-1427.5973,-1082.2699,-905.2477,8936.1791,668.9362,-2114.3167,1859.1554,-1565.0625,-184.4701,-157.2529,3180.3482,-3885.2553,-3008.5304,-4692.3556,-299.0214,3086.8718,2158.8205,-29.6998,322.4686,-4609.3799,1644.9119,2846.9559,809.7485,355.0006,423.0436,620.8832,-2022.569,-2777.4601,-3016.2174,-2186.0009,-1794.6065,2774.628,330.7441,-1843.4688,1219.6064,12147.7719,-1815.8286,-1822.8536,5322.6361,-1136.6123,-3070.0266,-2171.2521,-1023.569,10248.1768,-184.9666,1465.2784,-2765.9295,2817.0537,-798.034,616.3408,-4263.7031,914.5715,-3611.7592,-2640.3258,-1663.21,1284.1737,-490.7555,777.474,7044.455,4670.0117,-39492224,-39492224,38.682,713.9498,-1048573.3125,-1048573.3125,200,10653
1:05:06.950,,-3524.6274,-2818.5801,-3148.5519,-1753.9278,-1398.6147,10880.0572,-1427.5789,-1078.0586,-903.6846,8935.6458,672.2281,-2109.8111,1878.9063,-1560.3547,-181.1783,-155.0645,3178.0862,-3888.6574,-2983.1338,-4687.096,-296.2813,3084.7754,2154.4069,-27.4195,324.0318,-4608.4052,1638.7145,2846.5881,809.0129,347.8101,410.4096,609.463,-2022.4035,-2778.1037,-3015.8496,-2183.7573,-1795.5996,2772.8258,334.0727,-1844.1124,1219.7903,12150.843,-1811.1024,-1813.8057,5326.7738,-1135.2883,-3085.9339,-2167.8867,-1024.8563,10242.1265,-187.2286,1464.9658,-2769.4052,2815.2331,-792.1492,613.5456,-4269.9557,904.1811,-3615.1981,-2638.7811,-1669.2051,1277.9947,-484.2639,763.6264,7050.8179,4673.138,-39492224,-39492224,38.5604,714.2384,-1048573.3125,-1048573.3125,200,10654
1:05:06.950,,-3523.4136,-2819.7755,-3150.3909,-1757.6242,-1400.2698,10880.186,-1423.2573,-1072.3025,-906.0385,8937.8342,674.1406,-2106.3906,1896.8917,-1569.4026,-181.2518,-156.4253,3175.2909,-3883.9312,-2961.029,-4690.3695,-295.748,3085.3638,2162.0755,-33.2123,320.5929,-4609.8948,1638.0708,2854.0176,804.1947,338.9461,405.4811,606.8516,-2024.408,-2779.3542,-3016.8611,-2182.9665,-1797.9903,2775.9521,336.4267,-1841.924,1218.7421,12151.5786,-1808.399,-1810.9368,5326.6819,-1135.84,-3094.3382,-2167.5006,-1023.3115,10244.4621,-191.5135,1464.4692,-2769.0191,2823.8029,-799.7075,612.6261,-4274.7187,900.8525,-3624.5219,-2635.7283,-1676.3404,1287.9804,-489.9832,763.2034,7048.0594,4658.2421,-39492224,-39492224,38.7895,714.3068,-1048573.3125,-1048573.3125,200,10655
1:05:06.951,,-3523.3952,-2817.3296,-3148.4967,-1753.4497,-1400.987,10882.779,-1417.9242,-1065.4614,-905.4684,8937.0986,674.6739,-2103.5769,1910.8129,-1580.9147,-178.7692,-155.0829,3178.3621,-3882.8646,-2959.7601,-4693.4038,-297.3295,3088.4166,2168.2913,-45.4601,314.8368,-4613.0395,1638.126,2859.3323,804.2315,342.8815,418.3541,613.8398,-2023.7643,-2778.4347,-3015.4083,-2181.3482,-1797.1076,2775.382,338.7622,-1840.1586,1218.7053,12154.5394,-1806.4129,-1815.2585,5326.0934,-1132.2355,-3085.6397,-2171.1786,-1026.2907,10247.4045,-202.4003,1459.1913,-2767.8421,2829.6877,-823.6329,608.4148,-4272.5303,906.8661,-3635.9604,-2630.6711,-1684.4872,1291.8791,-518.4325,763.9022,7046.3491,4622.5288,-39492224,-39492224,38.8739,714.4728,-1048573.3125,-1048573.3125,200,10656
1:05:06.951,,-3521.6114,-2814.2217,-3145.1497,-1750.5441,-1399.0928,10880.94,-1418.6781,-1062.5374,-903.5191,8938.6617,674.8394,-2102.0873,1918.4632,-1586.965,-178.7692,-153.1519,3181.1022,-3878.7084,-2959.0613,-4699.3254,-298.9294,3088.0856,2168.9534,-53.6804,308.6578,-4612.212,1641.6569,2859.3875,798.3467,344.7941,429.6272,617.5914,-2022.5322,-2776.3751,-3011.7119,-2180.8149,-1795.3973,2775.7498,337.4381,-1838.9816,1221.7213,12155.4773,-1807.406,-1817.5205,5327.0864,-1131.316,-3073.9804,-2173.698,-1026.9895,10249.7216,-211.2275,1456.8558,-2767.5479,2828.7314,-841.7839,602.7874,-4270.1764,910.6176,-3636.0156,-2627.8942,-1692.1007,1293.8284,-535.903,767.3963,7048.2065,4606.603,-39492224,-39492224,38.7216,714.6007,-1048573.3125,-1048573.3125,200,10657
1:05:06.952,,-3520.6,-2812.1068,-3142.52,-1749.2568,-1396.2607,10882.779,-1414.5772,-1062.3719,-899.8595,8938.7169,678.4623,-2099.2553,1908.6981,-1583.3606,-176.2498,-148.8119,3183.548,-3882.2577,-2964.0634,-4700.484,-298.1755,3091.6348,2168.9534,-56.0711,304.7591,-4612.966,1640.3144,2852.4177,793.0687,345.9711,427.1997,614.1892,-2022.7713,-2777.6256,-3013.2199,-2179.0311,-1796.7398,2774.7751,339.0196,-1839.6988,1223.5603,12155.9186,-1803.1579,-1813.4563,5328.337,-1129.7161,-3058.0915,-2172.1164,-1026.1804,10250.8986,-216.2664,1455.8076,-2764.6238,2823.2328,-848.1652,597.7118,-4269.9005,906.8845,-3632.3744,-2627.8758,-1689.5261,1292.1917,-542.2659,763.8838,7048.5191,4584.4063,-39492224,-39492224,38.4511,714.6442,-1048573.3125,-1048573.3125,200,10658
1:05:06.952,,-3515.7634,-2812.1436,-3138.8052,-1749.1281,-1394.9734,10884.1582,-1413.6025,-1060.0548,-896.7883,8938.4962,678.8852,-2096.6807,1887.7335,-1570.1382,-172.774,-148.867,3185.479,-3878.5061,-2972.9642,-4694.0107,-295.2147,3093.4187,2165.1834,-57.7998,303.0856,-4613.7383,1642.1166,2838.3677,791.8366,342.716,420.8184,610.6951,-2023.3597,-2776.6693,-3015.9968,-2179.0679,-1796.7949,2777.4968,339.8656,-1839.2942,1225.7854,12157.7944,-1800.289,-1807.9761,5330.5254,-1127.6748,-3046.9287,-2168.7511,-1025.5183,10249.5009,-215.6227,1456.1202,-2766.0583,2808.0426,-846.5836,595.1556,-4275.8773,902.8387,-3627.2436,-2626.7908,-1684.2665,1286.8219,-540.2798,760.0587,7049.6225,4556.1776,-39492224,-39492224,38.3959,714.7526,-1048573.3125,-1048573.3125,200,10659
1:05:06.953,,-3514.1267,-2809.5138,-3137.9592,-1746.1489,-1394.5321,10884.0663,-1411.0279,-1056.1929,-893.6253,8939.7467,680.6507,-2097.6002,1866.8241,-1559.5088,-170.7695,-149.4371,3185.8284,-3867.5641,-2972.4308,-4694.5256,-296.8514,3089.9429,2163.7858,-67.6568,303.2695,-4614.7682,1638.8432,2826.1016,789.9792,335.9669,413.2049,608.8745,-2018.7255,-2773.4327,-3010.6269,-2178.6449,-1791.8664,2779.5565,340.6564,-1836.5173,1227.9739,12156.1577,-1799.1672,-1800.804,5332.5299,-1127.5093,-3043.6921,-2170.4246,-1023.2932,10250.6043,-223.1994,1453.9869,-2768.3018,2796.0707,-842.9424,593.335,-4277.9737,902.9306,-3621.1933,-2624.7679,-1681.3609,1286.215,-538.9557,760.9782,7040.8137,4550.6974,-39492224,-39492224,38.4994,714.7628,-1048573.3125,-1048573.3125,200,10660
1:05:06.953,,-3515.322,-2812.2539,-3140.6442,-1747.2523,-1392.031,10883.1284,-1414.7979,-1053.8022,-894.177,8939.287,676.1451,-2099.7702,1860.0565,-1551.4172,-170.0523,-149.3084,3186.9318,-3859.5644,-2973.3503,-4694.1946,-296.9801,3090.8624,2164.6685,-68.3556,304.6671,-4615.1176,1639.6156,2825.2925,791.4136,333.5026,406.75,608.0102,-2020.4725,-2773.8188,-3011.4544,-2179.123,-1793.6319,2777.552,340.9138,-1836.8116,1231.2105,12154.9256,-1799.535,-1798.7994,5331.3161,-1126.3691,-3042.5335,-2166.0294,-1025.5,10249.0779,-225.7556,1453.7295,-2766.9962,2796.0891,-837.9587,593.8315,-4279.9966,901.1468,-3618.9129,-2623.8116,-1676.7634,1286.6747,-533.0893,759.9667,7025.973,4559.0281,-39492224,-39492224,38.5653,714.9703,-1048573.3125,-1048573.3125,200,10661
1:05:06.954,,-3517.7311,-2810.8011,-3140.3867,-1746.2224,-1390.9092,10882.8341,-1412.9589,-1055.4389,-894.4896,8938.956,673.8648,-2099.2369,1856.4153,-1550.939,-170.8983,-152.5083,3186.5272,-3858.1116,-2971.6401,-4693.3303,-298.58,3091.6164,2171.4176,-64.4753,304.6303,-4616.129,1640.2041,2834.7265,790.3654,326.1466,400.5526,604.9574,-2021.9253,-2774.0027,-3012.4659,-2180.7414,-1794.6249,2776.6325,339.9208,-1838.0069,1229.9232,12158.0335,-1800.3442,-1796.3168,5330.5805,-1129.5322,-3041.9083,-2166.5259,-1030.1342,10251.1008,-223.3465,1454.9432,-2769.111,2803.39,-835.2738,593.2062,-4279.5001,898.7745,-3618.0486,-2625.9449,-1675.8623,1291.4745,-530.1101,758.4588,7013.6701,4569.161,-39492224,-39492224,38.4389,715.007,-1048573.3125,-1048573.3125,200,10662
1:05:06.954,,-3517.4737,-2810.6908,-3140.0741,-1746.9948,-1393.0793,10884.949,-1414.3013,-1056.4687,-896.7332,8936.9147,674.5452,-2099.4392,1846.8893,-1552.3734,-169.7581,-152.8761,3185.3503,-3861.0724,-2971.401,-4694.5256,-297.918,3091.4693,2176.5117,-70.7279,304.9798,-4615.2463,1643.6798,2844.933,791.5792,329.181,400.9939,607.1275,-2022.6793,-2774.959,-3014.2497,-2180.4839,-1795.1214,2774.4809,336.537,-1840.5447,1228.4704,12158.291,-1804.5003,-1797.9167,5330.1392,-1128.8885,-3041.4853,-2169.0637,-1026.6401,10253.6203,-227.0981,1453.564,-2766.4996,2813.3573,-835.9358,595.2659,-4277.5507,900.4112,-3615.8602,-2630.1746,-1677.6829,1296.8628,-529.6504,759.1024,7017.109,4556.7477,-39492224,-39492224,38.4364,715.1935,-1048573.3125,-1048573.3125,200,10663
1:05:06.955,,-3517.9518,-2811.5551,-3139.2281,-1746.4799,-1394.9183,10883.2571,-1414.4668,-1059.3008,-897.34,8935.6274,675.7222,-2098.5932,1844.4802,-1554.9848,-171.5603,-149.9337,3187.9616,-3866.1297,-2971.8056,-4697.3577,-296.5755,3093.6761,2181.3482,-75.8036,303.6189,-4614.4004,1645.9602,2852.2338,792.517,331.9947,406.5293,607.7895,-2025.2355,-2777.9382,-3015.7393,-2183.647,-1795.6731,2773.1016,335.9301,-1840.2689,1227.0176,12157.868,-1802.4039,-1803.0475,5328.6312,-1128.392,-3040.3635,-2169.9648,-1026.9528,10254.7421,-235.8334,1453.4169,-2765.4882,2820.6582,-834.8508,596.3877,-4275.8589,902.4341,-3620.3473,-2630.7079,-1672.9383,1299.2351,-529.7423,762.5046,7036.7863,4541.7231,-39492224,-39492224,38.4511,715.131,-1048573.3125,-1048573.3125,200,10664
1:05:06.955,,-3520.0115,-2812.2539,-3143.2923,-1750.6728,-1395.8378,10879.3216,-1416.6369,-1057.9583,-901.1652,8932.8873,675.7038,-2100.8368,1843.2665,-1556.2905,-173.3809,-151.6439,3187.0789,-3872.0696,-2977.8743,-4693.1831,-295.3434,3093.8048,2181.4586,-73.891,304.4281,-4614.5107,1647.2107,2857.6405,794.3744,335.3233,412.5796,611.1181,-2026.3757,-2781.0461,-3017.9277,-2183.5182,-1799.1305,2772.2373,337.2542,-1843.4504,1224.351,12157.3347,-1801.6315,-1803.7831,5329.6426,-1128.2265,-3038.4142,-2170.7556,-1024.8379,10258.7511,-233.222,1457.1868,-2763.2814,2823.1408,-834.6118,599.0175,-4275.7853,903.7582,-3626.3976,-2632.2526,-1660.1572,1299.4742,-530.9009,764.6378,7042.5608,4526.6433,-39492224,-39492224,38.5268,715.0743,-1048573.3125,-1048573.3125,200,10665
1:05:06.956,,-3520.6551,-2814.7366,-3142.3728,-1753.0267,-1397.7135,10879.2297,-1416.9863,-1057.3514,-903.9972,8932.9424,674.4532,-2101.5172,1846.1169,-1562.9661,-172.1672,-151.3497,3187.4099,-3875.2879,-2977.9478,-4690.2959,-296.8882,3093.9336,2181.808,-68.0982,306.4142,-4614.6578,1647.2291,2858.137,794.9997,331.5901,410.3912,610.5112,-2026.9826,-2783.5839,-3018.3507,-2185.1917,-1800.4729,2771.0052,337.0703,-1841.4091,1224.5165,12156.3232,-1803.8751,-1804.3164,5329.661,-1128.6127,-3042.2025,-2169.6338,-1023.8632,10255.8087,-225.4614,1456.6535,-2763.0423,2826.8372,-832.2211,599.1278,-4275.3991,904.3834,-3628.7699,-2633.025,-1648.4244,1297.8559,-525.9356,764.9137,7032.7589,4514.7266,-39492224,-39492224,38.5883,715.1725,-1048573.3125,-1048573.3125,200,10666
1:05:06.956,,-3521.7769,-2815.5274,-3141.8579,-1752.567,-1398.633,10877.501,-1415.0737,-1050.4368,-904.1995,8936.1975,674.2877,-2100.6713,1851.3948,-1573.2277,-169.2248,-149.1429,3188.1088,-3876.2993,-2974.0676,-4685.5697,-296.502,3097.7035,2184.7872,-59.6755,306.359,-4613.0579,1648.9209,2861.0058,794.3928,329.4017,403.8444,609.1504,-2032.8122,-2787.1332,-3018.9943,-2185.063,-1804.7026,2768.6696,336.6473,-1841.4275,1224.2591,12151.8177,-1802.7717,-1804.4084,5329.0909,-1127.1231,-3044.0415,-2168.2545,-1025.4448,10254.7972,-220.5697,1454.6674,-2764.8629,2828.7866,-833.6923,597.344,-4277.0542,900.2457,-3630.94,-2631.4986,-1640.5903,1300.7799,-528.97,758.33,7025.1271,4493.9827,-39492224,-39492224,38.6981,714.9264,-1048573.3125,-1048573.3125,200,10667
1:05:06.957,,-3523.5056,-2815.1412,-3143.4395,-1754.3876,-1400.7663,10875.6252,-1416.1955,-1046.6852,-905.873,8933.8803,676.2371,-2100.3954,1853.712,-1588.6937,-169.7029,-150.1727,3188.1088,-3871.9409,-2971.9527,-4684.172,-293.1182,3098.2184,2183.3527,-54.9309,307.8302,-4614.29,1649.914,2860.6013,793.8227,325.7421,400.5342,610.5112,-2034.0075,-2786.7838,-3018.553,-2183.8309,-1804.1877,2770.2328,336.5554,-1841.1516,1222.0523,12152.1671,-1801.1166,-1806.652,5327.6197,-1126.553,-3046.469,-2167.0408,-1024.8379,10255.588,-216.9836,1458.3454,-2764.0354,2827.6648,-832.1107,597.1233,-4277.4036,901.3491,-3633.5881,-2628.7218,-1638.9903,1301.3683,-526.3954,757.5393,7020.9341,4470.4986,-39492224,-39492224,38.7846,714.902,-1048573.3125,-1048573.3125,200,10668
1:05:06.957,,-3523.432,-2815.6009,-3142.9797,-1754.2221,-1400.9134,10871.2852,-1414.7427,-1040.9292,-903.372,8936.8043,676.4945,-2098.2622,1853.1235,-1598.3117,-170.6224,-146.6235,3186.6927,-3866.8101,-2974.9319,-4684.8525,-291.5183,3098.7701,2180.962,-53.5333,309.7428,-4614.9521,1647.8911,2853.9809,793.1239,325.6133,400.6813,609.4078,-2033.1432,-2785.2206,-3018.0932,-2180.8333,-1805.4382,2772.9361,339.2587,-1839.7908,1224.6085,12152.351,-1801.5947,-1810.1277,5327.4542,-1127.2886,-3049.8344,-2164.1168,-1025.3344,10254.3191,-215.3285,1456.6167,-2762.0309,2822.7546,-832.1291,594.0338,-4279.3897,901.864,-3632.8525,-2624.3265,-1639.8363,1300.6144,-526.7448,759.1024,7017.955,4440.3942,-39492224,-39492224,38.7875,714.9108,-1048573.3125,-1048573.3125,200,10669
1:05:06.958,,-3523.4136,-2813.7068,-3143.3291,-1752.99,-1399.5893,10871.9472,-1414.0806,-1040.3407,-904.1443,8936.4733,678.3703,-2096.2209,1847.2387,-1600.8863,-168.2501,-149.0877,3188.6789,-3863.3344,-2975.7594,-4687.1696,-292.8424,3098.954,2183.3895,-56.3653,308.0693,-4610.8143,1648.167,2856.3348,793.5101,319.0665,396.7275,609.794,-2031.4697,-2785.6252,-3017.4312,-2181.8631,-1806.0451,2771.6488,342.5873,-1838.669,1225.8038,12151.9464,-1802.4407,-1811.1024,5329.1829,-1128.5391,-3051.7653,-2166.3604,-1023.0173,10256.8937,-213.6734,1458.0879,-2762.4722,2826.1016,-834.6118,594.8613,-4278.2128,901.9927,-3631.7491,-2624.2714,-1646.1992,1299.9707,-527.6091,759.9667,7011.8127,4421.1766,-39492224,-39492224,38.7748,714.8146,-1048573.3125,-1048573.3125,200,10670
1:05:06.958,,-3521.4643,-2812.6585,-3144.7451,-1751.7762,-1398.394,10868.8393,-1410.7337,-1037.9132,-902.0111,8936.8963,680.0438,-2097.8025,1844.7744,-1601.9161,-170.5856,-145.3362,3187.3548,-3864.4378,-2979.7868,-4688.5672,-291.7022,3099.8919,2185.3205,-53.3862,306.7084,-4610.6488,1650.6864,2860.3254,793.5101,317.4666,395.3666,609.7756,-2032.5363,-2783.8966,-3017.0634,-2182.4332,-1803.0108,2772.1086,340.7667,-1839.1471,1227.2934,12154.1164,-1800.1235,-1812.9965,5330.0288,-1128.6127,-3053.7698,-2168.604,-1024.1207,10256.6178,-216.4503,1459.081,-2762.9504,2830.0555,-835.6416,595.6337,-4276.6129,901.3858,-3631.271,-2622.414,-1657.932,1301.7361,-530.7354,758.6243,7009.8082,4401.4626,-39492224,-39492224,38.621,714.7491,-1048573.3125,-1048573.3125,200,10671
1:05:06.958,,-3519.2575,-2813.0447,-3143.09,-1750.8015,-1398.2836,10869.5014,-1413.5289,-1038.4097,-900.7606,8935.5354,676.8623,-2097.4163,1847.0548,-1603.5344,-174.0981,-148.2418,3186.3065,-3868.925,-2982.5637,-4693.2567,-293.3757,3095.1841,2184.8055,-56.7883,305.8257,-4612.2487,1648.7922,2859.5162,792.9952,320.1699,398.9894,608.9481,-2024.9781,-2782.0943,-3014.3417,-2179.2702,-1798.6339,2775.0326,342.3482,-1837.7495,1225.0131,12153.5463,-1797.9351,-1812.6839,5328.5209,-1127.0128,-3055.4985,-2167.335,-1023.8265,10256.3788,-214.0044,1457.3707,-2762.84,2829.9267,-830.3269,599.2014,-4275.6198,901.772,-3626.9861,-2623.7197,-1672.4785,1302.435,-528.2711,761.1989,7009.1462,4388.8838,-39492224,-39492224,38.6405,714.8697,-1048573.3125,-1048573.3125,200,10672
1:05:06.959,,-3517.7679,-2810.9483,-3141.9683,-1749.3487,-1397.1067,10870.8255,-1413.106,-1041.0579,-900.9445,8933.7884,674.3245,-2096.7358,1853.7304,-1605.8516,-172.1488,-149.5475,3186.1962,-3872.088,-2984.7521,-4695.9968,-293.1366,3095.9933,2182.2126,-57.3952,306.7084,-4612.5062,1645.8866,2858.7255,794.0986,324.8961,403.6605,607.293,-2021.2633,-2778.4531,-3012.4475,-2179.0311,-1795.6548,2776.1728,341.0242,-1836.5541,1226.1532,12155.1463,-1800.4178,-1815.9389,5326.9945,-1127.2334,-3057.4478,-2169.4131,-1021.3622,10256.3788,-214.6665,1459.412,-2762.1228,2830.0187,-831.6694,597.5463,-4273.3394,901.4226,-3627.5378,-2625.7977,-1682.0229,1302.7476,-526.5976,760.6472,6999.3627,4400.6534,-39492224,-39492224,38.6488,714.9083,-1048573.3125,-1048573.3125,200,10673
1:05:06.959,,-3516.9955,-2812.3091,-3141.8763,-1746.719,-1394.4585,10871.23,-1414.6507,-1042.6027,-896.7332,8934.2297,673.3131,-2097.8944,1856.3601,-1607.1021,-174.5947,-149.3268,3186.141,-3873.927,-2984.936,-4696.9347,-294.2216,3092.5359,2177.9829,-58.7377,307.0946,-4613.8303,1645.6107,2859.9392,794.2641,328.3167,404.7271,607.9366,-2020.2518,-2776.5773,-3011.3073,-2178.0012,-1793.2089,2774.6096,342.1459,-1835.7266,1224.7924,12155.3118,-1800.9879,-1816.3987,5329.8633,-1127.73,-3056.9513,-2170.02,-1022.153,10257.004,-213.5998,1459.0994,-2763.3733,2828.6946,-830.6027,601.4266,-4271.7211,900.0985,-3630.3147,-2626.846,-1687.9077,1305.7636,-524.9793,758.845,6991.4918,4414.685,-39492224,-39492224,38.6937,714.7916,-1048573.3125,-1048573.3125,200,10674
1:05:06.960,,-3513.3727,-2809.8449,-3143.1636,-1747.1971,-1394.1643,10875.6069,-1414.2462,-1044.3129,-897.6159,8935.8113,674.6188,-2098.63,1851.6523,-1614.2926,-175.0912,-152.5083,3188.2007,-3873.5225,-2981.7914,-4702.8379,-295.8215,3092.0946,2180.3184,-61.3306,307.9773,-4613.8855,1646.3096,2859.1301,794.1721,326.9558,404.1386,607.8447,-2016.0957,-2774.1499,-3009.8177,-2176.4381,-1791.0389,2775.9889,341.9988,-1834.568,1223.5603,12154.7785,-1801.0982,-1819.5434,5331.0771,-1127.0311,-3054.2663,-2170.682,-1023.4587,10254.8708,-216.2848,1459.0442,-2762.4538,2831.6922,-827.5132,600.2864,-4272.8613,900.2273,-3629.1929,-2623.7565,-1696.643,1305.1015,-521.7427,758.8266,6986.2138,4423.1812,-39492224,-39492224,38.7724,714.7457,-1048573.3125,-1048573.3125,200,10675
1:05:06.960,,-3514.0531,-2809.238,-3143.2372,-1748.9258,-1393.5574,10880.3515,-1415.1657,-1043.9083,-898.9216,8935.7193,676.8256,-2098.3725,1847.7352,-1622.5681,-177.2428,-151.8462,3188.734,-3873.7799,-2978.6834,-4703.8309,-297.9548,3093.1244,2181.6792,-61.1835,303.9867,-4613.6832,1645.5004,2859.7369,793.7492,326.2018,403.495,606.1896,-2014.3302,-2770.8581,-3006.4156,-2173.3854,-1788.3723,2777.9382,343.5252,-1831.9382,1222.3097,12155.9738,-1800.6568,-1824.0673,5328.7783,-1128.7414,-3050.809,-2171.1786,-1023.9184,10256.2133,-216.2664,1460.2763,-2764.4583,2832.722,-827.973,601.0955,-4273.8911,900.4663,-3632.4479,-2623.6277,-1698.0958,1304.7337,-518.2486,759.2128,6987.4276,4429.066,-39492224,-39492224,38.6352,714.7506,-1048573.3125,-1048573.3125,200,10676
1:05:06.961,,-3513.2256,-2808.815,-3142.0234,-1747.8959,-1391.3874,10883.6065,-1412.8853,-1044.7359,-897.3584,8932.9976,674.1406,-2098.5381,1845.0503,-1625.4185,-179.2657,-152.0485,3188.5317,-3871.6651,-2983.5752,-4705.5596,-299.9777,3090.6969,2179.3621,-61.0548,306.0648,-4613.9958,1644.1395,2858.5232,793.5469,324.2709,402.6858,606.8516,-2012.3073,-2771.3914,-3005.7719,-2171.859,-1787.5815,2777.6991,343.3413,-1828.9407,1222.273,12157.0588,-1798.6707,-1827.0465,5330.5989,-1124.6956,-3050.57,-2172.3923,-1023.3115,10257.2431,-217.4434,1459.7062,-2765.1572,2831.7106,-826.4098,600.2312,-4272.7877,899.4365,-3633.3123,-2621.2186,-1695.1902,1305.9658,-516.9613,757.0243,6991.5469,4439.8609,-39492224,-39492224,38.6273,714.7614,-1048573.3125,-1048573.3125,200,10677
1:05:06.961,,-3512.9129,-2806.5163,-3140.8097,-1746.0385,-1389.8794,10882.9261,-1415.5702,-1046.4094,-895.0229,8936.1239,673.6441,-2098.7587,1848.7835,-1622.3658,-179.891,-153.5565,3189.1938,-3871.334,-2994.0023,-4704.3459,-299.0214,3087.92,2177.2105,-60.6686,309.283,-4615.0624,1644.5441,2856.2796,793.2159,321.1997,401.6192,604.6448,-2010.9649,-2769.6627,-3004.4294,-2171.859,-1785.5219,2777.3129,344.1137,-1828.1131,1222.3833,12156.2129,-1800.5833,-1825.6488,5329.9369,-1125.6703,-3052.5193,-2170.1487,-1023.8449,10256.7834,-214.501,1460.2212,-2764.4032,2830.6439,-826.8144,601.0036,-4273.0452,896.9355,-3633.772,-2621.568,-1688.2755,1302.7844,-517.2371,756.6198,6993.8089,4461.6346,-39492224,-39492224,38.5209,714.712,-1048573.3125,-1048573.3125,200,10678
1:05:06.962,,-3513.9428,-2809.0357,-3142.3361,-1747.9143,-1392.123,10884.8386,-1414.1358,-1050.6207,-895.7953,8936.4365,673.0372,-2100.9104,1850.9903,-1613.0604,-178.1439,-155.9472,3187.7777,-3871.6651,-3002.1307,-4700.0058,-300.3639,3085.6029,2172.0245,-58.848,309.2646,-4614.4739,1642.65,2854.6797,793.0687,319.2504,402.41,599.0726,-2009.5672,-2768.0076,-3003.5467,-2171.0314,-1782.9289,2780.5864,343.1758,-1829.4004,1222.0155,12156.1761,-1799.3695,-1819.2491,5331.0219,-1126.6082,-3051.7653,-2169.7625,-1021.7116,10254.8892,-213.1033,1459.3752,-2763.7779,2829.0072,-825.7662,600.3048,-4271.243,896.678,-3633.9927,-2623.168,-1680.6437,1300.7799,-514.6993,756.3991,6996.4387,4488.8886,-39492224,-39492224,38.6142,714.4918,-1048573.3125,-1048573.3125,200,10679
1:05:06.962,,-3513.8324,-2807.9507,-3142.0602,-1744.7696,-1388.7944,10888.0017,-1415.2944,-1053.0114,-896.3286,8936.1975,674.0671,-2100.1564,1850.7696,-1606.109,-178.4382,-154.5312,3185.902,-3874.5339,-3011.6567,-4697.2657,-300.1616,3084.9593,2169.7809,-57.5239,308.1612,-4615.5222,1639.5237,2854.2935,791.5424,320.5009,401.7112,599.7531,-2008.9971,-2765.8376,-3001.9836,-2169.6706,-1782.8185,2777.8646,341.9437,-1830.7797,1221.9052,12155.2566,-1800.3626,-1817.7411,5331.4449,-1129.1092,-3052.9974,-2169.9464,-1019.6887,10254.4478,-209.0759,1459.6327,-2763.7595,2828.4739,-824.9018,599.7347,-4270.9303,897.1194,-3629.0274,-2627.0667,-1677.0393,1297.5432,-515.674,755.7922,7001.1833,4516.6207,-39492224,-39492224,38.6093,714.4606,-1048573.3125,-1048573.3125,200,10680
1:05:06.963,,-3510.3935,-2808.2817,-3144.1934,-1746.1489,-1388.9599,10888.1672,-1416.4897,-1055.1998,-898.186,8936.3262,673.4234,-2101.223,1846.9996,-1601.8425,-177.9968,-155.3955,3186.6927,-3874.3316,-3020.2265,-4697.8174,-300.6029,3085.5293,2170.3694,-55.1516,311.3059,-4615.2647,1640.8293,2853.9625,789.4459,317.5217,401.4537,599.9737,-2009.2178,-2766.0583,-2999.0963,-2169.2476,-1781.8806,2776.9819,340.638,-1827.5614,1222.935,12154.5026,-1802.4591,-1817.5205,5330.9667,-1129.5506,-3052.9423,-2169.6522,-1020.3508,10254.8156,-208.6897,1462.3544,-2766.8674,2828.9705,-826.7224,598.5209,-4268.1718,895.7953,-3627.5378,-2623.7381,-1672.1843,1299.4742,-515.674,755.3876,7005.413,4529.1076,-39492224,-39492224,38.6801,714.3927,-1048573.3125,-1048573.3125,200,10681
1:05:06.963,,-3509.5844,-2807.6564,-3143.2923,-1747.9695,-1390.6886,10892.9118,-1415.5151,-1054.7217,-894.6551,8936.7676,673.736,-2101.4621,1840.3792,-1599.2679,-176.6359,-158.1908,3189.7823,-3872.1984,-3021.0356,-4699.3622,-301.7799,3082.6973,2167.7764,-60.1169,311.8944,-4615.7428,1641.05,2856.1325,787.846,312.538,395.8264,597.2888,-2005.7789,-2764.1825,-2999.1699,-2166.9489,-1780.2991,2779.1887,341.9437,-1826.2557,1220.2868,12157.2611,-1799.958,-1815.0378,5333.3758,-1128.3368,-3048.8781,-2169.266,-1020.9392,10255.4593,-210.6207,1461.6372,-2764.1457,2829.0256,-826.373,597.7853,-4270.1396,892.577,-3625.662,-2624.2714,-1672.2395,1298.2237,-518.506,754.4497,6997.4501,4540.9323,-39492224,-39492224,38.5536,714.3741,-1048573.3125,-1048573.3125,200,10682
1:05:06.964,,-3510.9452,-2806.1485,-3142.8694,-1747.4546,-1388.9231,10895.3393,-1414.0071,-1053.1401,-892.8529,8938.6433,675.1888,-2100.5426,1838.2276,-1598.7162,-176.6176,-157.9333,3191.8419,-3870.7088,-3021.4586,-4699.3438,-302.1845,3083.2674,2168.1442,-61.5145,310.9565,-4615.2279,1640.7006,2851.1304,786.3564,310.5703,394.0057,594.0154,-2005.3559,-2761.0562,-2998.0481,-2166.5075,-1777.0625,2778.2508,343.0838,-1826.7155,1219.4961,12160.9575,-1800.8959,-1816.086,5334.3321,-1127.4357,-3047.4069,-2167.9787,-1020.645,10255.6432,-212.3493,1461.4165,-2766.2789,2824.6672,-828.5063,598.1347,-4271.8498,890.3886,-3626.1034,-2621.5129,-1670.3269,1297.8375,-521.2829,751.489,6995.4824,4554.78,-39492224,-39492224,38.619,714.381,-1048573.3125,-1048573.3125,200,10683
1:05:06.964,,-3509.9154,-2807.5829,-3142.0786,-1746.4799,-1388.0956,10896.4427,-1411.0463,-1053.1769,-896.3286,8938.533,676.0716,-2098.8691,1837.1794,-1598.5691,-178.5853,-155.7081,3191.75,-3871.2421,-3015.5738,-4698.4243,-301.9086,3081.6491,2161.6893,-59.8962,311.9312,-4617.0853,1638.5858,2848.2983,787.4046,308.1796,394.4839,594.3648,-2005.4111,-2762.0309,-2997.8642,-2166.1029,-1777.2096,2779.2807,342.9367,-1824.2696,1219.9374,12159.0817,-1799.9028,-1814.5413,5333.5413,-1127.73,-3048.308,-2169.5418,-1019.5784,10256.8017,-213.0114,1460.4786,-2766.095,2822.4788,-828.0281,597.1785,-4272.0337,890.5725,-3623.6207,-2619.0854,-1665.0674,1292.8906,-519.26,748.473,7005.3578,4571.8275,-39492224,-39492224,38.5814,714.3468,-1048573.3125,-1048573.3125,200,10684
1:05:06.965,,-3509.6211,-2806.7002,-3144.4877,-1746.7006,-1391.0931,10898.153,-1413.6761,-1056.5607,-896.8987,8938.6433,675.2992,-2099.4576,1837.2345,-1595.6819,-177.0037,-157.4552,3192.6143,-3873.6696,-3013.2199,-4698.7737,-304.1338,3081.0974,2156.8344,-58.2595,311.3427,-4614.8601,1639.3949,2848.0961,786.761,310.4416,393.215,595.4682,-2004.6019,-2765.0284,-2995.6574,-2166.2868,-1776.5292,2777.6072,344.9044,-1825.8695,1218.1352,12160.1483,-1801.1718,-1813.2172,5333.6149,-1129.054,-3047.9402,-2170.1119,-1018.2359,10256.342,-210.731,1460.9751,-2765.2491,2823.104,-825.619,597.2704,-4270.3786,891.0139,-3623.1426,-2620.0417,-1662.4744,1288.5321,-516.1337,749.4844,7014.9022,4600.9941,-39492224,-39492224,38.6342,714.1676,-1048573.3125,-1048573.3125,200,10685
1:05:06.965,,-3510.7429,-2808.061,-3144.8371,-1746.3328,-1389.8794,10896.645,-1415.3128,-1057.9215,-897.9653,8940.0042,675.4095,-2101.2046,1838.9264,-1591.8936,-178.0888,-156.8115,3191.3638,-3874.0006,-3006.0845,-4696.1439,-301.1546,3083.3593,2156.816,-56.347,312.2254,-4614.8233,1639.3398,2846.8823,787.3311,312.1335,394.6678,592.5258,-2006.8639,-2765.3778,-2997.2206,-2168.2729,-1779.4532,2779.483,341.6126,-1828.7384,1219.3306,12158.9162,-1803.2498,-1813.8609,5332.8425,-1128.2633,-3046.377,-2168.512,-1017.9417,10254.7788,-210.6207,1461.6004,-2766.7019,2823.104,-826.134,596.6819,-4268.6316,889.9657,-3618.7842,-2621.9358,-1661.8123,1287.8885,-516.8693,749.9074,7027.904,4633.2685,-39492224,-39492224,38.6459,714.0948,-1048573.3125,-1048573.3125,200,10686
1:05:06.966,,-3515.5059,-2809.3851,-3144.3773,-1747.712,-1390.4863,10895.9462,-1413.7864,-1060.5513,-899.0871,8940.2984,676.5129,-2100.1748,1841.0413,-1589.8339,-174.9808,-156.2047,3191.1063,-3867.2882,-2994.5172,-4693.3486,-299.9225,3084.2604,2157.7539,-52.3747,313.2369,-4612.0281,1639.0087,2841.494,789.2988,314.3403,395.4402,590.5765,-2009.604,-2765.5801,-3001.5974,-2170.4062,-1782.0094,2776.4854,338.7806,-1829.6763,1219.4961,12156.1577,-1802.7349,-1811.1024,5333.6149,-1128.5023,-3048.1425,-2168.9534,-1019.0451,10253.4915,-206.2622,1461.8211,-2764.4399,2816.0607,-825.6374,598.3003,-4269.8086,886.067,-3620.9358,-2623.2415,-1660.5802,1288.8815,-517.421,747.8477,7041.5309,4654.5641,-39492224,-39492224,38.5058,713.9884,-1048573.3125,-1048573.3125,200,10687
1:05:06.966,,-3518.3196,-2813.2838,-3146.8968,-1751.0038,-1394.955,10889.6568,-1412.5359,-1055.7699,-900.7238,8940.7582,679.6208,-2100.7632,1839.6436,-1589.2454,-173.1786,-155.2852,3192.0074,-3865.6515,-2983.7591,-4695.4451,-297.7157,3085.9523,2161.8916,-53.993,312.4461,-4612.874,1642.3557,2845.5398,791.9653,315.1494,395.3298,594.4751,-2014.9371,-2771.0603,-3005.5512,-2173.4589,-1790.2849,2775.4556,338.707,-1830.0073,1220.0845,12155.6796,-1801.4292,-1812.4632,5333.0632,-1129.6609,-3047.7011,-2167.4822,-1018.7508,10256.25,-205.5818,1462.336,-2763.4469,2819.2973,-825.2329,598.5761,-4271.3349,888.9358,-3626.9309,-2623.0209,-1661.4629,1293.2216,-517.182,751.0476,7052.3994,4658.187,-39492224,-39492224,38.6249,713.9767,-1048573.3125,-1048573.3125,200,10688
1:05:06.967,,-3519.9011,-2817.2192,-3151.0897,-1755.6933,-1398.3388,10886.7696,-1417.6115,-1054.7401,-905.4868,8938.4778,676.8991,-2103.062,1835.3588,-1592.7211,-177.6474,-154.4024,3192.4856,-3865.6515,-2982.3063,-4695.3532,-299.0766,3086.7431,2171.4176,-57.6159,312.4461,-4611.9177,1642.3741,2859.0933,790.8987,316.2528,398.6584,597.9325,-2016.9232,-2774.0947,-3005.9006,-2172.6498,-1790.4136,2774.5728,339.3323,-1831.644,1217.5835,12155.6796,-1803.5441,-1813.8792,5331.1874,-1127.7851,-3048.1976,-2169.0821,-1017.7945,10259.0085,-208.0093,1461.6372,-2763.3365,2832.1151,-824.8467,599.2014,-4267.234,893.3862,-3627.8504,-2623.8484,-1664.7363,1303.7223,-517.4762,755.9209,7056.3901,4659.2536,-39492224,-39492224,38.8344,713.9611,-1048573.3125,-1048573.3125,200,10689
1:05:06.967,,-3517.0323,-2816.4469,-3148.5335,-1754.8841,-1397.9158,10884.8019,-1419.7815,-1057.425,-903.0593,8935.8664,675.9612,-2103.8344,1832.9129,-1592.3901,-177.2796,-153.6484,3194.3798,-3865.5412,-2993.4322,-4696.1255,-298.3042,3090.0533,2177.7438,-56.1998,312.1886,-4610.7592,1644.9303,2863.5437,791.432,316.2528,398.4561,597.7669,-2016.8129,-2774.6832,-3007.6661,-2173.2015,-1789.2918,2773.3039,339.2955,-1833.8508,1219.2386,12154.6681,-1806.5784,-1815.4792,5330.2679,-1125.6519,-3043.5818,-2169.0453,-1017.7026,10259.8729,-211.816,1460.7361,-2761.4975,2836.492,-824.3134,600.3967,-4268.7235,891.6575,-3629.6894,-2622.5243,-1669.6097,1307.1796,-517.1452,753.0705,7055.066,4664.8441,-39492224,-39492224,38.662,714.1212,-1048573.3125,-1048573.3125,200,10690
1:05:06.968,,-3519.1655,-2814.7918,-3146.3451,-1755.2703,-1396.9412,10886.9351,-1419.0276,-1057.1491,-901.7536,8936.8779,678.0025,-2104.2206,1829.5843,-1595.406,-176.6176,-152.3979,3197.5428,-3864.3642,-2996.0068,-4697.1738,-298.3961,3091.2302,2174.4336,-57.4504,311.214,-4612.4143,1645.3533,2858.137,789.7769,317.5585,397.6654,597.0313,-2015.5256,-2773.4143,-3005.8455,-2174.9301,-1791.8664,2775.4923,339.7736,-1832.306,1217.6019,12154.2452,-1805.3647,-1815.093,5331.1506,-1125.5783,-3038.4693,-2168.8982,-1015.0177,10262.4843,-212.2022,1462.667,-2760.8539,2831.7657,-824.0191,598.8336,-4267.896,892.0805,-3629.5423,-2622.6714,-1672.0923,1305.2302,-517.513,751.82,7053.4109,4652.2838,-39492224,-39492224,38.6093,714.1334,-1048573.3125,-1048573.3125,200,10691
1:05:06.968,,-3523.0091,-2818.01,-3147.7427,-1755.6013,-1399.1112,10884.8754,-1415.3496,-1057.7192,-907.3994,8936.6388,680.4852,-2103.3746,1830.3383,-1593.9716,-176.213,-150.6693,3198.8301,-3861.3299,-2985.1199,-4697.5783,-296.1158,3092.7566,2173.9554,-55.2252,313.292,-4611.2925,1648.6635,2856.96,791.6159,317.6137,399.1917,597.0865,-2020.6748,-2776.0256,-3008.0891,-2176.7507,-1793.8341,2774.8671,336.9232,-1834.6967,1217.3996,12155.8451,-1804.0958,-1814.762,5332.2356,-1124.2175,-3038.0464,-2168.3281,-1013.6384,10262.3371,-211.0069,1461.6556,-2761.8102,2828.3268,-825.5455,601.0955,-4267.4362,892.4851,-3632.6686,-2622.6347,-1672.5153,1303.5568,-517.3843,750.6062,7055.5625,4652.5412,-39492224,-39492224,38.6859,714.0953,-1048573.3125,-1048573.3125,200,10692
1:05:06.969,,-3526.4112,-2818.8008,-3148.8277,-1759.1874,-1402.6788,10879.5975,-1416.453,-1057.7928,-906.8109,8937.0618,681.0369,-2101.9218,1833.0968,-1593.8613,-175.6245,-151.129,3197.0095,-3860.9437,-2977.4329,-4693.4774,-294.7917,3094.9818,2174.3968,-50.2783,311.968,-4607.9639,1651.3852,2854.9923,792.94,320.9239,401.4905,598.5761,-2025.5849,-2778.9497,-3013.2383,-2179.8035,-1796.3352,2773.3039,335.7278,-1836.2599,1216.7008,12154.5026,-1805.3647,-1815.2033,5329.0358,-1124.4198,-3036.097,-2167.5741,-1018.0888,10264.3968,-206.0967,1460.8832,-2757.9851,2827.4809,-824.1111,600.93,-4268.227,894.3793,-3634.0111,-2623.1128,-1670.805,1299.9891,-513.9453,753.6222,7059.0566,4645.976,-39492224,-39492224,38.7724,713.944,-1048573.3125,-1048573.3125,200,10693
1:05:06.969,,-3526.2089,-2819.3157,-3149.9311,-1760.8609,-1402.5869,10880.2963,-1420.4804,-1058.3445,-906.8293,8934.855,680.6323,-2107.2733,1835.5794,-1593.8981,-175.8452,-153.0967,3196.8256,-3863.3528,-2975.5939,-4693.3486,-294.0929,3095.4232,2169.5418,-47.06,315.1678,-4607.3018,1650.3921,2856.5371,797.4823,325.1168,407.5776,600.4887,-2025.1068,-2780.6783,-3016.0335,-2179.4173,-1798.2477,2771.042,333.0061,-1836.2783,1218.5582,12154.8152,-1807.7554,-1814.4493,5331.3345,-1123.96,-3039.9773,-2169.0269,-1018.8796,10262.7049,-203.9819,1463.09,-2759.4746,2826.9476,-821.3342,605.3252,-4267.4179,894.7471,-3633.5697,-2626.0184,-1671.3751,1299.088,-511.8856,754.3762,7058.8359,4649.1943,-39492224,-39492224,38.7982,713.8532,-1048573.3125,-1048573.3125,200,10694
1:05:06.970,,-3525.8595,-2818.8376,-3149.7288,-1758.1575,-1402.2191,10876.9309,-1422.8343,-1059.5398,-905.6155,8935.94,682.2322,-2105.7102,1837.2162,-1589.0983,-176.2681,-150.8348,3198.8669,-3866.4423,-2969.7091,-4693.4958,-294.4975,3096.3794,2172.2636,-46.4347,317.0436,-4609.1592,1650.6864,2859.2956,798.9535,327.4891,407.3017,601.2978,-2028.0308,-2782.9771,-3016.9898,-2180.5942,-1798.2477,2768.4674,335.1945,-1839.9747,1216.2962,12153.8406,-1806.6888,-1814.6332,5326.2773,-1124.3278,-3041.283,-2166.6178,-1019.3761,10259.689,-202.621,1460.6993,-2758.4632,2830.6623,-821.5549,602.861,-4268.7787,894.5999,-3635.372,-2627.1218,-1670.5476,1298.6834,-514.1844,754.4497,7059.9209,4656.9364,-39492224,-39492224,38.7494,714.1154,-1048573.3125,-1048573.3125,200,10695
1:05:06.970,,-3524.1492,-2817.9181,-3147.8163,-1756.3002,-1403.6351,10877.5746,-1419.5976,-1055.2734,-905.3029,8935.2412,679.1059,-2102.8781,1836.3886,-1587.1673,-175.7164,-149.2348,3195.7958,-3864.3642,-2981.9017,-4694.213,-295.1595,3094.5588,2175.2427,-47.6301,313.384,-4608.3133,1649.2152,2862.0541,796.1583,326.6616,403.9731,602.9897,-2026.0998,-2780.5864,-3015.7393,-2181.716,-1798.7443,2770.7845,337.1255,-1840.0298,1218.834,12153.344,-1805.567,-1813.2724,5327.1048,-1125.9645,-3045.9541,-2166.1765,-1021.0128,10259.3763,-204.8462,1459.8901,-2759.1436,2833.6599,-822.3272,602.861,-4270.4522,893.5333,-3632.4296,-2627.5264,-1671.4855,1302.2327,-515.5085,755.0198,7063.4702,4652.7067,-39492224,-39492224,38.7846,714.0865,-1048573.3125,-1048573.3125,200,10696
1:05:06.971,,-3521.2436,-2817.2009,-3146.2163,-1754.4244,-1400.3617,10877.6665,-1416.5449,-1052.3494,-905.0822,8936.6756,678.2048,-2101.7011,1831.4417,-1588.1972,-176.452,-148.3337,3193.2947,-3860.1713,-3011.2889,-4695.2612,-294.2768,3095.4416,2187.8767,-50.8851,312.207,-4610.1339,1649.0129,2865.5666,794.7606,323.2226,402.2629,601.3346,-2025.493,-2781.1932,-3014.2681,-2182.3965,-1797.8248,2771.2442,337.4013,-1840.9125,1219.5328,12154.7417,-1803.9486,-1812.077,5328.2634,-1125.2105,-3045.1633,-2168.0706,-1019.6887,10260.3142,-206.9243,1459.5959,-2757.6724,2833.6967,-824.2398,600.9116,-4268.6132,895.1149,-3632.7606,-2625.7058,-1674.1152,1311.4828,-517.9543,753.4567,7073.6951,4643.8612,-39492224,-39492224,38.9491,714.3732,-1048573.3125,-1048573.3125,200,10697
1:05:06.971,,-3521.1884,-2814.0378,-3146.5474,-1753.6336,-1398.5411,10878.7332,-1416.1955,-1053.1033,-903.372,8937.3376,679.6576,-2102.3816,1821.8973,-1585.8616,-178.2175,-147.5981,3195.2441,-3856.1623,-3028.9433,-4695.0773,-295.8031,3095.9565,2198.3406,-56.4573,311.4163,-4609.3063,1650.8335,2868.3251,793.6756,318.7355,398.309,599.8266,-2025.6769,-2780.5128,-3014.2129,-2181.6425,-1797.9535,2770.7109,338.9829,-1838.4115,1220.5995,12157.8312,-1802.4774,-1811.415,5328.9438,-1122.452,-3039.6095,-2168.6591,-1020.3691,10261.9693,-214.0044,1461.3981,-2760.0447,2834.8736,-826.373,597.344,-4271.8131,893.0736,-3628.7332,-2624.3633,-1675.9726,1323.0685,-523.1771,753.6406,7079.8189,4641.1027,-39492224,-39492224,38.7875,714.5114,-1048573.3125,-1048573.3125,200,10698
1:05:06.972,,-3521.4275,-2813.5412,-3143.0349,-1749.9556,-1396.3711,10879.0826,-1414.9634,-1050.7862,-901.2939,8937.6319,682.5632,-2101.131,1813.3827,-1580.2895,-174.2085,-148.2602,3197.6532,-3851.7119,-3024.8607,-4694.2681,-295.1227,3098.6782,2198.7452,-58.5905,307.7566,-4610.1707,1651.2565,2868.3986,793.0136,313.4759,393.454,596.9026,-2025.2907,-2779.0968,-3014.8198,-2180.5391,-1797.7328,2769.4052,337.6404,-1838.2644,1219.7351,12155.7164,-1798.965,-1810.2012,5329.6243,-1121.0728,-3037.7889,-2170.3878,-1020.3508,10260.5349,-216.7813,1459.8534,-2761.6998,2835.1127,-831.7797,596.1486,-4273.8544,890.7748,-3623.0874,-2622.322,-1675.991,1320.6043,-527.6643,751.6177,7082.4303,4638.712,-39492224,-39492224,38.5551,714.59,-1048573.3125,-1048573.3125,200,10699
1:05:06.972,,-3519.4966,-2812.6585,-3143.1268,-1749.974,-1397.4193,10879.1929,-1412.8669,-1049.7012,-900.8341,8937.2825,680.5771,-2097.6369,1805.1808,-1577.2183,-172.2591,-145.0971,3195.5199,-3850.112,-3006.8753,-4694.544,-294.6997,3097.1334,2196.52,-60.264,307.2601,-4613.5544,1651.6427,2867.0745,790.2551,309.0256,387.2934,594.7878,-2025.401,-2777.3865,-3013.79,-2178.7736,-1797.126,2772.0902,337.9346,-1838.3563,1222.1994,12159.2288,-1798.4316,-1808.2887,5331.1138,-1121.7348,-3034.1109,-2172.1348,-1020.0933,10262.3004,-216.5055,1457.3523,-2761.4792,2836.0138,-836.7082,594.6774,-4275.914,889.8185,-3624.6322,-2623.499,-1675.2003,1316.9079,-528.4366,748.3075,7076.3432,4618.0416,-39492224,-39492224,38.4687,714.6569,-1048573.3125,-1048573.3125,200,10700
1:05:06.973,,-3520.6184,-2811.9597,-3142.2625,-1750.3786,-1395.8194,10879.763,-1413.6025,-1049.6644,-901.6433,8936.9147,680.1358,-2099.2553,1808.0496,-1578.1746,-172.9579,-145.7959,3195.0234,-3853.6796,-2995.1793,-4696.1623,-295.6192,3098.8621,2192.419,-58.2779,305.697,-4613.2418,1651.1277,2865.3827,788.6551,304.5568,387.2934,595.8176,-2025.6033,-2777.2762,-3012.6682,-2179.7115,-1796.2432,2775.1245,340.6564,-1837.7679,1222.9718,12159.9277,-1797.696,-1809.8886,5332.4195,-1123.6658,-3034.3684,-2170.4062,-1021.2703,10261.197,-217.2962,1458.4925,-2761.1114,2832.7956,-837.8484,595.082,-4275.5462,888.6232,-3622.0024,-2624.1243,-1673.5819,1314.9218,-529.7239,750.4959,7066.5965,4593.9139,-39492224,-39492224,38.4364,714.7057,-1048573.3125,-1048573.3125,200,10701
1:05:06.973,,-3520.3609,-2814.4791,-3144.4877,-1750.9671,-1396.9044,10882.8709,-1414.5588,-1051.0988,-903.3168,8937.4664,682.7104,-2100.138,1806.2842,-1580.8596,-174.4291,-145.5936,3194.1591,-3853.8819,-2993.7449,-4695.7945,-293.6331,3098.9173,2194.1844,-56.8987,305.605,-4611.6419,1651.6059,2867.0194,790.678,305.1085,386.7417,596.6268,-2028.8583,-2780.237,-3015.2428,-2179.3621,-1799.2408,2772.7154,339.6633,-1838.7609,1223.5235,12162.4839,-1800.6752,-1811.5805,5333.8356,-1121.6061,-3032.7317,-2167.7212,-1021.307,10261.8774,-214.3354,1459.3017,-2759.3827,2835.1495,-834.1888,595.5969,-4275.9876,891.1058,-3628.3654,-2624.253,-1675.237,1313.4874,-528.1424,751.5625,7054.735,4572.1769,-39492224,-39492224,38.4916,714.7975,-1048573.3125,-1048573.3125,200,10702
1:05:06.974,,-3521.1333,-2814.2217,-3142.9245,-1751.0958,-1399.2031,10881.5468,-1413.8416,-1049.9403,-903.4455,8936.5469,682.3977,-2099.9909,1805.8612,-1580.5285,-173.6568,-145.189,3195.7222,-3854.544,-3001.579,-4695.3532,-292.4194,3102.0436,2192.2351,-55.832,306.6165,-4611.5867,1654.2908,2871.1571,792.5538,309.5037,387.6244,599.9921,-2028.4905,-2783.9333,-3018.6817,-2182.8746,-1802.643,2770.8213,340.4908,-1838.8161,1223.6338,12158.6404,-1802.3303,-1812.9046,5330.6541,-1121.7164,-3032.4926,-2167.5741,-1022.2633,10263.4038,-215.7147,1458.9339,-2758.3712,2840.5562,-832.4969,596.8291,-4273.6337,894.8206,-3633.3491,-2624.8415,-1678.6576,1312.8989,-524.8322,753.4199,7048.4824,4548.6745,-39492224,-39492224,38.5463,714.8907,-1048573.3125,-1048573.3125,200,10703
1:05:06.974,,-3522.8987,-2815.3802,-3143.8624,-1753.6888,-1401.8145,10880.3515,-1415.4047,-1050.8414,-903.9237,8935.517,681.5334,-2101.0575,1817.9067,-1580.8044,-172.8108,-145.6856,3195.9613,-3853.9003,-3009.5603,-4696.9531,-291.8861,3101.2344,2193.6879,-51.0874,307.3888,-4611.035,1655.0448,2872.3341,794.6319,314.4138,389.3899,597.4727,-2028.9503,-2785.1287,-3018.5162,-2185.4676,-1804.6475,2769.7363,340.8403,-1841.0413,1220.2868,12158.2542,-1801.4108,-1810.6978,5333.3942,-1121.3486,-3032.842,-2167.1879,-1020.7553,10264.0474,-211.0988,1459.835,-2757.4334,2841.3653,-829.6648,597.1049,-4273.5969,891.5656,-3636.0708,-2625.0621,-1679.3012,1314.4436,-523.6185,749.3189,7047.4341,4532.1787,-39492224,-39492224,38.6073,714.9239,-1048573.3125,-1048573.3125,200,10704
1:05:06.975,,-3522.0344,-2817.8813,-3145.2233,-1756.1346,-1401.0789,10880.1308,-1417.115,-1051.0988,-905.7811,8934.6527,679.4369,-2100.3587,1832.3244,-1578.1011,-173.1602,-148.7199,3196.1084,-3853.3118,-3006.2868,-4692.2636,-291.6838,3101.1608,2189.9731,-44.6141,311.0485,-4609.9684,1652.2863,2867.5711,798.9168,319.324,395.5505,589.6753,-2031.9846,-2785.8643,-3020.2448,-2185.817,-1804.482,2768.1547,337.3462,-1842.3837,1219.1467,12158.8427,-1804.482,-1812.2058,5333.762,-1121.1647,-3032.2167,-2166.5994,-1020.9208,10259.6154,-203.3382,1460.7912,-2759.0149,2838.662,-824.0927,599.7898,-4273.6888,883.9337,-3638.535,-2623.5542,-1678.1059,1313.0828,-519.5175,741.779,7045.6687,4515.7564,-39492224,-39492224,38.5468,714.9137,-1048573.3125,-1048573.3125,200,10705
1:05:06.975,,-3524.1308,-2818.1204,-3146.4554,-1754.8473,-1403.5616,10880.517,-1418.0897,-1052.1103,-906.8477,8931.1954,678.2416,-2102.9884,1830.6693,-1578.3585,-174.4108,-147.3591,3196.2004,-3854.5624,-2996.724,-4692.1533,-292.5297,3100.9218,2191.665,-41.5982,311.0852,-4609.6006,1652.8564,2868.6377,799.2846,317.0436,393.8954,591.2201,-2030.7157,-2786.7102,-3020.7965,-2184.7688,-1804.6475,2767.8053,338.7622,-1843.1377,1220.0478,12157.9599,-1806.2842,-1812.0402,5335.1229,-1120.6314,-3034.5523,-2166.6178,-1021.6748,10260.9395,-199.8257,1461.2878,-2757.2678,2839.3424,-826.1524,602.861,-4274.7371,884.5406,-3639.6568,-2625.338,-1675.6048,1312.7518,-520.7496,742.4227,7038.5334,4499.2238,-39492224,-39492224,38.5702,715.1647,-1048573.3125,-1048573.3125,200,10706
1:05:06.976,,-3526.9261,-2820.0329,-3144.8003,-1759.6839,-1405.3086,10879.7078,-1416.4897,-1054.5194,-908.7418,8933.2551,677.6531,-2102.1241,1814.7804,-1577.7884,-174.8889,-146.2373,3195.7038,-3854.3417,-2987.1796,-4691.7119,-292.0884,3099.1012,2190.8926,-45.0739,309.9267,-4608.2397,1658.024,2878.6418,800.3144,314.3403,391.1553,598.7784,-2033.7133,-2788.5492,-3021.1643,-2185.2285,-1805.6037,2767.0145,337.7507,-1843.0458,1216.7927,12157.9967,-1806.5232,-1813.162,5330.7644,-1121.2935,-3034.589,-2167.9235,-1020.2956,10265.3899,-203.6876,1463.3107,-2755.3737,2846.8271,-827.0719,602.5483,-4271.9418,891.7863,-3641.1832,-2626.3311,-1677.5358,1308.4853,-519.8117,750.3488,7025.7339,4492.2356,-39492224,-39492224,38.664,714.9674,-1048573.3125,-1048573.3125,200,10707
1:05:06.976,,-3528.6548,-2821.2099,-3146.9519,-1757.8817,-1406.3752,10874.4115,-1417.9609,-1053.9125,-909.0177,8930.846,679.0875,-2101.646,1804.9417,-1569.1451,-174.8521,-144.6925,3196.8808,-3852.4843,-2981.0558,-4690.112,-290.3781,3103.2573,2193.7431,-45.975,310.1473,-4607.2651,1662.3273,2885.8691,799.1926,317.5953,390.291,602.9161,-2039.9843,-2791.7123,-3026.4974,-2187.9686,-1810.8449,2764.4767,334.2015,-1846.7606,1216.9399,12154.5762,-1805.806,-1811.323,5327.3623,-1122.0107,-3032.0696,-2167.1511,-1019.7071,10265.0772,-204.6623,1458.9339,-2753.4611,2850.7074,-828.4143,601.0955,-4269.3304,895.6666,-3641.459,-2628.1149,-1677.2599,1311.115,-523.6001,756.2152,7027.0028,4466.5632,-39492224,-39492224,38.7821,714.8888,-1048573.3125,-1048573.3125,200,10708
1:05:06.977,,-3528.949,-2822.9018,-3148.9932,-1758.507,-1407.166,10870.8622,-1420.0758,-1053.1585,-909.0913,8932.4275,678.9404,-2103.485,1809.6128,-1561.9179,-170.6224,-143.7914,3194.8763,-3853.9555,-2992.2737,-4687.6477,-290.4517,3106.0526,2191.0765,-44.2647,312.1151,-4607.6696,1658.0976,2876.5454,799.5236,318.2941,394.5391,601.9599,-2039.5613,-2791.3997,-3026.7917,-2189.9547,-1809.7415,2766.3341,334.6244,-1848.0111,1220.1949,12155.2014,-1806.2842,-1806.6704,5328.5209,-1120.9073,-3034.0741,-2166.3052,-1019.4129,10263.7348,-205.8209,1461.0671,-2753.9944,2842.1377,-828.1936,603.4127,-4269.5511,895.2436,-3635.8317,-2628.1333,-1670.4556,1308.5588,-523.8391,756.8037,7026.396,4452.1638,-39492224,-39492224,38.5619,714.9928,-1048573.3125,-1048573.3125,200,10709
1:05:06.977,,-3529.8869,-2822.111,-3149.1404,-1758.8012,-1406.7246,10867.644,-1418.0529,-1048.138,-909.1832,8935.517,682.3058,-2102.731,1810.3851,-1562.2857,-170.4385,-142.1363,3196.513,-3851.6751,-3009.5051,-4685.349,-288.2081,3104.9492,2189.072,-47.3175,312.6484,-4607.4673,1655.4494,2871.2675,800.4983,316.3999,398.8975,600.5438,-2038.9545,-2790.7744,-3024.8607,-2189.6237,-1811.323,2767.2904,336.4083,-1847.3858,1220.8937,12156.4703,-1805.4382,-1803.636,5330.9116,-1119.5648,-3032.1983,-2163.8777,-1020.2956,10262.2268,-206.3542,1460.0924,-2754.5277,2837.7241,-826.465,602.2909,-4272.8981,892.8897,-3631.0135,-2627.5448,-1668.6166,1305.8003,-520.7864,751.3602,7026.2672,4455.1614,-39492224,-39492224,38.6298,714.9449,-1048573.3125,-1048573.3125,200,10710
1:05:06.978,,-3529.28,-2820.6766,-3147.3565,-1760.8793,-1406.1546,10865.9889,-1416.7472,-1047.3473,-909.1832,8935.1308,681.8828,-2101.8115,1802.8636,-1569.9359,-169.2248,-143.442,3198.7198,-3847.2983,-3015.3715,-4689.3212,-289.5689,3105.3905,2191.5547,-53.0184,310.6807,-4606.0697,1655.1919,2877.5384,796.4157,314.0092,393.123,598.3738,-2037.2258,-2791.5836,-3022.0655,-2187.0859,-1809.9438,2771.2259,341.2448,-1841.9608,1220.6179,12157.1876,-1805.2176,-1807.0198,5330.0104,-1118.2407,-3027.4905,-2162.241,-1019.468,10264.4152,-210.1241,1462.2257,-2754.7668,2845.9628,-827.2374,599.9554,-4272.1809,889.5427,-3633.7536,-2623.7381,-1673.5268,1308.945,-520.5289,749.889,7024.0237,4453.1385,-39492224,-39492224,38.7528,714.8014,-1048573.3125,-1048573.3125,200,10711
1:05:06.978,,-3529.1145,-2820.8237,-3147.4117,-1757.4955,-1405.8787,10866.6693,-1415.4415,-1047.053,-908.2085,8935.2964,682.8207,-2100.2115,1799.6638,-1573.3564,-170.3466,-141.0145,3200.9082,-3848.1075,-3008.273,-4690.8844,-287.8035,3107.1376,2190.8559,-56.7331,309.1911,-4607.0628,1658.4102,2880.4441,797.7398,307.8486,388.029,598.6129,-2037.8511,-2790.9032,-3023.7573,-2187.8583,-1809.9622,2769.7914,342.2195,-1841.7769,1220.8385,12156.5071,-1804.2981,-1807.5715,5330.4702,-1117.2844,-3023.5734,-2164.1168,-1018.3462,10267.0634,-213.7837,1461.4349,-2757.2311,2849.9718,-827.127,599.3669,-4272.2912,890.7564,-3636.1443,-2622.1381,-1678.8783,1310.6553,-522.4967,750.7534,7024.0604,4442.8401,-39492224,-39492224,38.6933,714.8107,-1048573.3125,-1048573.3125,200,10712
1:05:06.979,,-3529.4456,-2822.2581,-3149.0116,-1757.9369,-1406.6511,10867.4969,-1418.9724,-1049.0575,-908.3373,8934.3769,683.023,-2102.2528,1798.0822,-1577.9907,-170.5121,-145.2074,3198.6462,-3848.7879,-2992.4759,-4691.8774,-289.9,3104.2688,2192.3822,-55.3355,310.1473,-4607.9271,1658.778,2880.2969,797.5743,297.2192,383.0637,600.5806,-2033.4926,-2790.5905,-3023.2424,-2187.3801,-1806.1371,2772.4028,341.9253,-1842.4205,1222.512,12154.7969,-1805.3831,-1807.3324,5329.9185,-1119.1602,-3022.2126,-2164.0616,-1020.8473,10269.0127,-212.7723,1462.0602,-2757.0472,2846.6249,-823.8904,599.1462,-4270.1028,895.2804,-3632.6318,-2624.3633,-1679.3748,1311.5932,-520.0324,755.3325,7019.702,4429.4338,-39492224,-39492224,38.7377,714.9191,-1048573.3125,-1048573.3125,200,10713
1:05:06.979,,-3532.296,-2822.7362,-3151.2736,-1758.9667,-1405.419,10868.5267,-1421.0688,-1054.1332,-909.551,8932.1149,679.253,-2104.9378,1791.2228,-1577.3103,-171.4132,-146.1453,3198.9956,-3858.884,-2981.2397,-4690.6269,-291.316,3103.3493,2190.249,-51.7862,312.6852,-4608.3501,1659.2377,2878.6418,798.8432,294.5158,380.1765,604.5161,-2034.0627,-2790.0756,-3021.4218,-2189.4766,-1805.2911,2771.5385,340.8586,-1843.7262,1222.3281,12156.1209,-1807.5163,-1807.7186,5329.7346,-1120.7234,-3026.0193,-2166.673,-1017.5187,10267.9461,-206.8139,1464.0831,-2756.5322,2847.3605,-816.6631,604.3138,-4269.8821,900.6686,-3629.0826,-2627.3609,-1679.9449,1308.1359,-510.6535,759.838,7010.4335,4429.2499,-39492224,-39492224,38.8109,714.8771,-1048573.3125,-1048573.3125,200,10714
1:05:06.979,,-3530.3467,-2820.8789,-3151.8805,-1757.9369,-1406.1178,10870.3657,-1422.6504,-1055.6963,-909.1096,8934.3401,680.0254,-2105.8205,1790.2297,-1573.2277,-170.3466,-145.8327,3198.2049,-3874.4603,-2985.8739,-4686.103,-288.9437,3098.7334,2178.792,-43.0326,316.1793,-4608.1294,1654.9713,2865.3643,799.5236,295.9319,381.5373,604.369,-2032.1685,-2789.009,-3021.1276,-2187.0123,-1804.5371,2771.9063,343.1574,-1842.7332,1224.7004,12155.4405,-1807.2037,-1806.5049,5332.6954,-1122.8382,-3026.0377,-2162.7008,-1018.7324,10266.0519,-200.0832,1464.6531,-2756.5874,2836.5471,-809.7485,605.0678,-4270.912,895.7217,-3626.8758,-2629.7332,-1663.2835,1296.9915,-502.3412,755.2405,7007.8221,4445.5802,-39492224,-39492224,38.8441,714.9723,-1048573.3125,-1048573.3125,200,10715
1:05:06.980,,-3527.1468,-2819.5916,-3151.715,-1757.0725,-1401.4283,10875.3494,-1420.8482,-1056.1193,-906.2592,8935.7009,678.8485,-2104.809,1785.2276,-1567.6004,-166.0249,-144.8212,3198.4623,-3879.9222,-3007.758,-4682.8296,-289.146,3097.0415,2168.5304,-42.3338,317.9079,-4610.4097,1650.5577,2848.2064,800.9581,298.5249,384.1303,594.1625,-2025.6585,-2783.1058,-3016.6036,-2185.7067,-1799.3144,2776.0808,343.3229,-1839.2207,1224.5349,12159.0082,-1805.9532,-1797.7696,5333.9459,-1121.5693,-3021.7344,-2158.6734,-1017.8497,10261.6199,-198.4833,1467.6691,-2758.5184,2820.5846,-811.7346,606.0057,-4271.8315,886.2877,-3626.3241,-2626.4598,-1640.5351,1291.1987,-507.3617,746.7995,7012.2908,4467.4827,-39492224,-39492224,38.8266,714.8346,-1048573.3125,-1048573.3125,200,10716
1:05:06.980,,-3523.193,-2817.0905,-3149.6369,-1755.5278,-1400.2514,10878.7148,-1418.5126,-1058.4916,-904.2363,8939.5077,681.515,-2103.3195,1779.0854,-1560.3363,-164.0388,-146.5499,3204.2736,-3881.798,-3025.0262,-4683.1238,-291.5551,3097.7771,2164.6317,-51.5839,310.8829,-4610.4649,1649.1416,2846.7168,795.11,303.8028,390.2542,591.4592,-2022.6609,-2779.3358,-3013.2015,-2179.6931,-1797.8248,2777.8646,346.4676,-1836.7748,1224.2407,12161.5276,-1803.5808,-1793.779,5336.6125,-1119.528,-3009.2844,-2158.8205,-1018.2911,10265.8128,-206.5381,1463.4762,-2755.9622,2821.1363,-834.0417,602.9897,-4272.751,883.1797,-3622.076,-2622.6898,-1627.2943,1288.6609,-529.9262,744.8318,7014.2402,4458.5083,-39492224,-39492224,38.7025,714.8307,-1048573.3125,-1048573.3125,200,10717
1:05:06.981,,-3520.5816,-2816.4836,-3148.9932,-1753.1922,-1400.9502,10880.848,-1417.023,-1061.4708,-902.2686,8939.8203,683.0598,-2101.8483,1789.1999,-1556.0698,-165.8042,-149.2532,3205.6896,-3885.807,-3034.1109,-4681.8365,-292.9895,3097.6484,2162.1123,-57.1009,308.0693,-4610.6672,1652.1392,2856.2428,787.0184,307.2969,390.7139,587.8547,-2021.3736,-2777.129,-3012.2268,-2179.5828,-1795.2134,2778.9497,344.9044,-1835.6714,1225.6383,12162.1161,-1805.2359,-1795.5812,5334.093,-1116.1994,-3004.4662,-2160.0894,-1017.4635,10269.8403,-210.7862,1463.1268,-2754.7484,2830.6807,-849.3789,596.1302,-4271.0591,884.9084,-3619.4646,-2627.1402,-1613.9064,1283.8978,-540.7028,742.8457,7024.3363,4450.7294,-39492224,-39492224,38.7157,714.6417,-1048573.3125,-1048573.3125,200,10718
1:05:06.981,,-3522.1447,-2817.2009,-3150.1886,-1755.1968,-1399.4422,10880.3883,-1417.6667,-1064.1557,-907.8407,8936.032,682.269,-2105.0297,1803.1579,-1571.7565,-170.3466,-149.5107,3208.6504,-3882.3313,-3042.3496,-4682.2779,-295.1411,3098.0897,2162.8111,-49.8553,308.0325,-4609.1224,1655.4862,2865.07,789.2804,307.0394,387.1831,589.3995,-2021.2633,-2779.5565,-3011.8958,-2180.1529,-1794.1468,2776.9084,344.6838,-1836.0576,1223.8177,12160.7736,-1805.7141,-1800.6201,5334.2401,-1117.8545,-3000.0894,-2161.3399,-1015.4222,10273.1321,-208.2484,1462.3728,-2753.9025,2838.331,-843.678,593.574,-4269.2752,882.4993,-3622.6829,-2629.8252,-1612.5639,1285.369,-537.5029,744.9421,7040.8505,4462.9219,-39492224,-39492224,38.6195,714.547,-1048573.3125,-1048573.3125,200,10719
1:05:06.982,,-3523.3769,-2818.8008,-3151.6966,-1758.3047,-1399.3503,10884.6731,-1419.7632,-1062.611,-908.3557,8938.2388,682.9678,-2104.9378,1805.3095,-1595.3141,-173.7671,-149.4371,3210.802,-3861.8448,-3066.7899,-4687.5006,-295.7112,3097.207,2170.2591,-49.1932,306.9843,-4609.5822,1657.2148,2872.5731,785.9702,300.6213,385.528,588.6455,-2019.3691,-2779.9611,-3008.6959,-2177.7254,-1792.8963,2779.0232,342.2931,-1833.7588,1219.7719,12162.5023,-1803.8935,-1807.314,5334.0746,-1117.2844,-2996.9079,-2163.7306,-1015.0544,10273.316,-203.5589,1462.5015,-2754.3071,2848.7581,-837.83,593.7763,-4267.473,881.7637,-3628.9906,-2624.4921,-1621.0969,1294.6192,-530.1837,742.5146,7043.9033,4483.6475,-39492224,-39492224,38.5829,714.5138,-1048573.3125,-1048573.3125,200,10720
1:05:06.982,,-3522.0528,-2816.9986,-3150.5564,-1759.0954,-1399.81,10887.1742,-1419.1379,-1059.6134,-908.043,8937.4848,683.7954,-2101.554,1805.9348,-1605.2447,-176.0842,-152.2508,3210.8388,-3835.8965,-3081.2996,-4691.6568,-297.0169,3097.7771,2184.0516,-49.0461,308.5842,-4612.0097,1657.2148,2879.2119,784.3887,296.6491,378.7972,582.5768,-2020.9323,-2780.3105,-3007.7764,-2175.3715,-1795.6731,2776.9451,344.7757,-1832.1037,1215.9652,12161.9138,-1801.9441,-1812.831,5332.3092,-1117.45,-2994.6092,-2164.6685,-1016.967,10274.8791,-202.4003,1462.4831,-2755.4472,2856.6842,-834.3359,592.8936,-4267.8776,875.695,-3634.618,-2617.6326,-1637.4088,1311.1702,-526.8919,734.9747,7043.2412,4507.9591,-39492224,-39492224,38.5697,714.4142,-1048573.3125,-1048573.3125,200,10721
1:05:06.983,,-3518.338,-2815.1596,-3147.614,-1759.5184,-1401.5387,10892.0107,-1418.4575,-1056.5974,-907.5833,8934.6527,683.3356,-2101.7195,1809.0427,-1609.6215,-176.121,-152.2324,3210.1952,-3811.9711,-3079.6997,-4696.4566,-298.6352,3094.2462,2194.6442,-51.7495,308.1428,-4613.4257,1653.5552,2874.9455,784.6645,294.8836,376.1858,575.6438,-2018.7806,-2776.3015,-3005.1467,-2172.5026,-1793.2641,2776.559,345.4745,-1832.4715,1214.917,12161.1966,-1802.0545,-1814.8539,5333.3942,-1118.7005,-2990.2508,-2167.0408,-1017.6658,10274.9711,-203.3566,1463.8072,-2756.1093,2848.0777,-830.8602,593.2062,-4274.2589,869.0746,-3638.3879,-2614.212,-1655.0632,1324.3007,-523.3794,730.4876,7036.5656,4518.8275,-39492224,-39492224,38.641,714.4982,-1048573.3125,-1048573.3125,200,10722
1:05:06.983,,-3514.66,-2812.1252,-3147.9266,-1755.8404,-1397.8239,10893.3716,-1415.4783,-1053.5263,-904.0708,8938.3307,681.0369,-2098.6668,1821.1985,-1611.2214,-179.6703,-154.5679,3209.4596,-3803.0704,-3073.0977,-4702.2126,-300.842,3090.8992,2195.7108,-51.5656,309.3198,-4613.1499,1648.829,2864.0402,784.1864,292.1435,377.2892,571.1014,-2015.7831,-2772.0902,-3001.9836,-2171.0314,-1787.0482,2778.4347,347.9204,-1826.4948,1216.7743,12161.6379,-1798.3397,-1817.9067,5332.0885,-1117.8545,-2992.1633,-2168.2729,-1018.5118,10271.9367,-205.637,1462.1889,-2761.2033,2837.0804,-829.4074,593.6844,-4276.2451,867.0517,-3639.8775,-2610.6076,-1674.0049,1325.2386,-523.8391,727.9865,7031.4716,4528.6294,-39492224,-39492224,38.412,714.2521,-1048573.3125,-1048573.3125,200,10723
1:05:06.984,,-3512.2141,-2810.5253,-3143.5682,-1753.1187,-1393.8516,10896.5898,-1414.4117,-1053.4344,-900.1537,8940.2249,681.3863,-2096.8646,1843.2297,-1603.8654,-179.3209,-154.2737,3208.1723,-3809.4885,-3087.9017,-4701.7897,-300.8972,3090.5498,2189.3479,-52.3931,307.1866,-4612.8372,1643.7166,2849.604,786.9449,294.4239,381.758,574.5772,-2010.7442,-2769.9569,-2999.3354,-2169.6706,-1783.7932,2778.5267,349.5387,-1826.7706,1220.2868,12162.8517,-1798.0087,-1817.5021,5331.6839,-1121.459,-2999.9239,-2170.3142,-1018.7692,10267.2105,-205.2508,1461.6004,-2762.6009,2826.5614,-833.2325,592.0477,-4272.1441,869.8102,-3637.6155,-2612.0604,-1683.2919,1321.3399,-525.531,730.1933,7027.4258,4554.5961,-39492224,-39492224,38.5585,714.1803,-1048573.3125,-1048573.3125,200,10724
1:05:06.984,,-3512.0486,-2809.2748,-3143.513,-1751.2981,-1392.785,10901.0954,-1411.9842,-1055.6228,-900.356,8938.8824,682.4713,-2097.968,1866.4563,-1596.0313,-179.5048,-155.4874,3202.2691,-3824.9545,-3113.4821,-4699.5829,-302.4235,3088.3798,2182.801,-48.476,309.9451,-4611.366,1643.312,2836.8598,786.5403,297.2927,386.9256,586.4755,-2008.519,-2767.1984,-2998.8021,-2168.8062,-1781.4577,2781.4875,349.318,-1827.5614,1221.9419,12162.5023,-1801.6499,-1815.3688,5335.1596,-1121.2935,-3014.783,-2170.6452,-1015.5142,10263.2199,-202.4187,1459.2097,-2762.2515,2813.4125,-833.4532,596.9394,-4272.2912,882.5545,-3635.8869,-2616.1982,-1687.8158,1315.6758,-523.453,741.0434,7036.1978,4576.9399,-39492224,-39492224,38.6366,714.3639,-1048573.3125,-1048573.3125,200,10725
1:05:06.985,,-3512.398,-2808.7415,-3142.8326,-1753.4865,-1392.2517,10901.0034,-1413.9151,-1057.0572,-899.4549,8940.8317,680.9633,-2097.0669,1864.2678,-1589.4109,-176.1578,-155.0645,3200.3013,-3837.8459,-3123.7622,-4696.7508,-300.7868,3086.2466,2179.8035,-47.8876,312.1151,-4611.7522,1639.7443,2834.1013,785.4185,299.2237,387.1095,587.7812,-2005.264,-2766.5916,-2996.2827,-2166.2133,-1781.8439,2782.5173,347.8285,-1827.3039,1220.9305,12163.5873,-1802.2935,-1813.0885,5336.7596,-1120.6314,-3030.8743,-2166.8753,-1017.0222,10258.9166,-198.8327,1462.5199,-2763.0239,2809.8081,-829.3338,597.344,-4270.3235,886.9129,-3632.2273,-2619.3245,-1683.8436,1315.7309,-520.6025,746.965,7049.2915,4607.026,-39492224,-39492224,38.724,714.236,-1048573.3125,-1048573.3125,200,10726
1:05:06.985,,-3510.2832,-2808.2265,-3140.7913,-1751.0774,-1392.0126,10901.169,-1414.1542,-1058.6387,-898.1308,8940.6478,680.6875,-2098.7587,1854.0614,-1570.9841,-174.5579,-154.5128,3193.4051,-3844.7789,-3094.4853,-4693.9923,-300.934,3086.0075,2180.8885,-44.9819,312.1519,-4613.4441,1639.2662,2838.5516,785.8231,295.7664,382.8614,585.464,-2005.4663,-2766.4445,-2997.3493,-2166.7282,-1780.0968,2779.9059,345.07,-1828.3522,1222.3281,12165.0217,-1800.6752,-1808.3255,5336.0056,-1124.5853,-3044.4277,-2165.6064,-1020.2956,10252.6456,-196.773,1462.7038,-2765.4882,2816.1526,-828.5247,596.2774,-4274.4796,881.0833,-3629.4136,-2620.4646,-1678.3082,1312.6046,-521.8898,742.0181,7062.2933,4623.8344,-39492224,-39492224,38.7279,714.299,-1048573.3125,-1048573.3125,200,10727
1:05:06.986,,-3515.8186,-2812.2172,-3143.9728,-1751.9049,-1393.8333,10896.9209,-1415.1289,-1062.0041,-900.9629,8940.5007,680.1909,-2099.5495,1844.848,-1561.8259,-173.0131,-154.384,3190.6282,-3852.7969,-3038.7268,-4692.0062,-299.334,3084.665,2185.394,-42.8855,314.1748,-4612.0281,1640.388,2852.4177,785.6576,292.0148,378.3007,582.3561,-2011.866,-2772.458,-3002.4617,-2170.5349,-1783.499,2779.2991,343.9482,-1830.9084,1224.0568,12160.0196,-1803.4889,-1806.5416,5332.0885,-1128.2817,-3053.8802,-2166.8753,-1019.3761,10253.6754,-197.1592,1461.3062,-2765.3962,2827.4441,-822.9525,594.8062,-4274.1118,879.465,-3628.8067,-2625.4483,-1674.5934,1313.1747,-514.258,738.193,7072.04,4646.0496,-39492224,-39492224,38.5985,714.1344,-1048573.3125,-1048573.3125,200,10728
1:05:06.986,,-3518.0989,-2814.9389,-3147.522,-1755.1784,-1399.3319,10892.0291,-1418.2,-1064.5051,-902.8387,8941.0892,680.5771,-2101.4621,1836.6828,-1560.8696,-173.6935,-154.4944,3192.0626,-3862.8379,-2986.9406,-4691.3809,-299.003,3086.9454,2182.3229,-47.8508,316.2712,-4611.9361,1646.5119,2860.7668,787.754,292.732,373.2067,584.2687,-2016.1141,-2774.3338,-3006.7466,-2175.206,-1788.5194,2778.2692,340.7667,-1833.3543,1221.3535,12158.5116,-1805.9348,-1806.983,5331.8862,-1128.6311,-3058.257,-2167.5741,-1018.7508,10256.8017,-201.7015,1461.4349,-2763.6124,2835.0392,-818.8699,595.6337,-4271.9602,883.6947,-3630.4434,-2627.6184,-1676.6531,1312.4023,-509.1271,743.5077,7068.1964,4654.8216,-39492224,-39492224,38.7084,714.0021,-1048573.3125,-1048573.3125,200,10729
1:05:06.987,,-3518.6322,-2817.2744,-3149.03,-1754.406,-1399.3319,10892.3601,-1419.4321,-1065.5718,-904.9719,8940.2249,677.5428,-2104.3861,1826.3661,-1562.9293,-174.4475,-152.1772,3193.8464,-3867.7112,-2966.0311,-4692.6866,-299.9961,3086.9822,2176.1439,-53.0368,315.7011,-4610.0419,1646.0705,2857.2727,792.1492,294.3136,375.8548,586.4387,-2016.0405,-2772.127,-3005.8823,-2174.6727,-1787.508,2778.2508,342.6425,-1833.9979,1220.765,12162.0241,-1806.3026,-1807.2588,5328.7415,-1127.4173,-3056.9329,-2164.9995,-1019.1554,10256.8201,-206.2071,1462.9429,-2761.9205,2830.9566,-816.8654,600.2312,-4270.6361,883.143,-3630.7009,-2626.5517,-1673.9681,1306.7198,-506.0192,742.9008,7058.744,4664.5499,-39492224,-39492224,38.7475,714.2174,-1048573.3125,-1048573.3125,200,10730
1:05:06.987,,-3517.8231,-2812.07,-3144.1015,-1751.9969,-1394.5137,10893.3348,-1418.3655,-1065.0936,-901.9192,8940.9973,680.1725,-2104.478,1822.5777,-1560.6489,-170.935,-151.5336,3191.1063,-3871.0766,-2963.5301,-4691.197,-295.987,3088.2695,2171.2337,-53.2758,315.4621,-4609.8764,1642.4477,2853.0062,792.3331,297.8444,380.5443,582.7975,-2013.6314,-2772.5867,-3005.9006,-2175.7577,-1786.2942,2779.1519,342.1827,-1832.7474,1221.9419,12160.5897,-1803.728,-1801.4292,5333.1367,-1126.7553,-3056.8226,-2165.7351,-1018.6037,10254.1352,-209.6644,1462.3176,-2762.5274,2825.366,-819.2929,599.5324,-4271.3717,875.8789,-3628.7699,-2628.0597,-1672.0372,1298.334,-509.9915,735.4897,7054.9189,4665.9475,-39492224,-39492224,38.7426,714.151,-1048573.3125,-1048573.3125,200,10731
1:05:06.988,,-3514.9175,-2809.661,-3143.3843,-1750.4337,-1392.8954,10896.0014,-1415.5518,-1062.0409,-899.0319,8943.9764,681.4966,-2104.9746,1822.9271,-1564.8235,-171.5419,-152.214,3189.3777,-3875.4902,-2961.7279,-4689.0638,-296.0054,3086.8534,2163.2709,-53.239,315.7563,-4611.6419,1635.1101,2836.7862,794.2457,304.612,392.2035,578.8252,-2011.774,-2769.2765,-3003.0502,-2172.4842,-1785.1725,2782.2782,345.7504,-1831.3865,1224.7924,12161.1046,-1802.5326,-1802.22,5337.1274,-1127.8587,-3057.5214,-2164.8892,-1016.7279,10251.9468,-205.8209,1464.8922,-2762.9504,2808.0059,-820.8744,602.9529,-4273.0636,872.2009,-3628.5677,-2627.2689,-1669.4994,1293.3135,-511.5546,727.6003,7056.2429,4657.3042,-39492224,-39492224,38.7304,714.0646,-1048573.3125,-1048573.3125,200,10732
1:05:06.988,,-3518.6322,-2814.2952,-3146.5106,-1752.144,-1395.47,10893.8497,-1416.4346,-1064.2661,-903.2432,8942.9282,680.9817,-2103.485,1817.7044,-1576.685,-171.9097,-151.7727,3191.8235,-3871.3524,-2964.1921,-4691.0131,-293.8722,3090.0533,2169.1557,-50.2231,317.0252,-4607.5409,1643.1281,2849.1995,796.8571,307.8118,396.9849,578.4391,-2017.8795,-2772.2189,-3005.7719,-2175.6289,-1789.3654,2778.2508,345.5849,-1832.5451,1223.3028,12160.4242,-1803.7831,-1807.2405,5332.4011,-1126.4243,-3058.3673,-2165.9006,-1016.3601,10253.1789,-206.2255,1466.3082,-2759.4011,2819.2973,-825.4168,605.2333,-4267.7857,875.695,-3630.9767,-2625.1357,-1671.1361,1299.511,-517.9727,733.4668,7060.3991,4654.417,-39492224,-39492224,38.7445,714.1241,-1048573.3125,-1048573.3125,200,10733
1:05:06.989,,-3522.0528,-2817.679,-3148.6806,-1755.822,-1401.226,10884.9306,-1420.2413,-1064.6707,-905.965,8939.3054,681.1288,-2102.8229,1814.8539,-1587.1122,-174.5395,-150.044,3197.2486,-3862.5068,-2987.5106,-4694.9854,-293.486,3096.1036,2187.987,-49.4139,311.545,-4608.0007,1656.608,2883.8094,793.5101,302.1845,391.1185,587.9651,-2023.9298,-2777.3129,-3010.7924,-2180.7965,-1794.8088,2775.8785,342.0724,-1836.1128,1220.2317,12159.1369,-1806.983,-1813.4931,5327.16,-1125.8726,-3049.1907,-2168.935,-1016.0659,10261.8038,-206.1703,1463.1452,-2754.068,2854.1464,-834.9979,600.6174,-4265.4133,881.8741,-3636.8983,-2627.3425,-1671.559,1317.4228,-527.9585,744.2617,7063.6909,4646.4174,-39492224,-39492224,38.6869,714.1422,-1048573.3125,-1048573.3125,200,10734
1:05:06.989,,-3526.5951,-2819.5916,-3150.9426,-1759.7575,-1405.2534,10880.2227,-1421.6757,-1064.119,-909.5326,8936.0687,680.0622,-2106.0044,1818.2009,-1593.2728,-178.1255,-153.06,3201.8829,-3858.3323,-3001.5238,-4696.4382,-296.079,3100.885,2203.0668,-48.4393,307.3153,-4607.0628,1668.8005,2905.3809,787.6253,290.3965,379.6615,594.6774,-2028.417,-2783.6575,-3015.0221,-2182.3965,-1799.2224,2772.5132,339.0932,-1838.4483,1216.5353,12153.8957,-1808.2703,-1815.7366,5328.6496,-1122.7095,-3037.9912,-2170.7924,-1017.5739,10270.7598,-203.044,1461.5268,-2750.6291,2877.4833,-843.0344,593.5189,-4262.1951,890.9219,-3639.3442,-2628.354,-1669.481,1331.7854,-533.3284,754.5969,7069.4654,4635.2546,-39492224,-39492224,38.5829,714.1803,-1048573.3125,-1048573.3125,200,10735
1:05:06.990,,-3530.3283,-2824.7224,-3153.4804,-1762.2769,-1407.589,10876.1953,-1422.0067,-1067.1717,-913.2474,8932.1517,679.6208,-2107.8802,1820.3525,-1597.2267,-179.0818,-151.0371,3202.7472,-3850.3511,-3009.4867,-4694.4337,-294.9388,3106.402,2209.6872,-40.3109,307.113,-4605.0583,1677.6645,2912.8656,785.4553,278.774,368.6092,608.0286,-2033.4191,-2787.8504,-3019.9322,-2187.4905,-1805.567,2766.9962,335.7278,-1840.9861,1214.6227,12152.9946,-1809.4473,-1817.1711,5326.737,-1123.9416,-3025.9641,-2172.1348,-1017.9049,10275.2469,-197.4166,1458.9522,-2748.8268,2882.3015,-845.3883,589.3627,-4258.1861,902.195,-3640.9625,-2626.9931,-1663.5042,1336.8059,-538.3489,765.447,7062.1461,4623.5034,-39492224,-39492224,38.7226,714.2823,-1048573.3125,-1048573.3125,200,10736
1:05:06.990,,-3530.4386,-2821.8903,-3153.3333,-1759.923,-1405.8235,10878.0527,-1422.3378,-1063.0156,-909.6797,8932.4275,681.1104,-2107.5492,1816.0125,-1597.4106,-175.7716,-149.1429,3204.7701,-3851.4728,-3024.6952,-4693.5325,-296.9801,3105.1699,2201.3933,-40.7706,309.5037,-4605.8674,1672.6808,2889.3816,788.1954,284.4565,375.5054,612.718,-2031.0651,-2785.0367,-3019.9138,-2185.3021,-1802.7901,2769.6443,336.8128,-1841.3907,1217.326,12156.452,-1806.3393,-1815.8102,5325.5601,-1121.2935,-3021.3115,-2171.105,-1018.1256,10272.7275,-198.5568,1460.0005,-2750.813,2861.3185,-845.3883,590.4661,-4257.7631,907.8959,-3636.7696,-2625.669,-1659.3113,1325.6983,-539.2316,767.9112,7055.3602,4606.0145,-39492224,-39492224,38.7694,714.3351,-1048573.3125,-1048573.3125,200,10737
1:05:06.991,,-3526.2641,-2818.341,-3147.8163,-1757.9736,-1402.5685,10881.1239,-1417.1702,-1059.2272,-907.381,8938.7721,686.0206,-2102.6758,1801.8338,-1593.7877,-174.374,-147.5981,3202.1036,-3849.6522,-3026.4607,-4694.1578,-296.2261,3104.2871,2191.8489,-46.5083,306.8555,-4606.3823,1664.6444,2868.8216,790.0896,290.8562,381.7212,606.6677,-2027.4423,-2783.915,-3016.6588,-2183.4631,-1799.1672,2771.1339,341.1161,-1839.7172,1221.9235,12158.0335,-1802.0545,-1812.2425,5329.4036,-1119.3073,-3017.2841,-2167.5741,-1017.0773,10270.0609,-203.4118,1461.3429,-2754.491,2839.4344,-842.2988,593.0591,-4262.9123,903.1697,-3636.365,-2623.3335,-1660.8928,1314.554,-536.3627,761.9713,7045.7055,4601.1228,-39492224,-39492224,38.8285,714.4747,-1048573.3125,-1048573.3125,200,10738
1:05:06.991,,-3527.9008,-2820.1616,-3149.6737,-1758.3047,-1405.5293,10882.2456,-1418.8069,-1058.0319,-909.4591,8940.1881,685.0643,-2102.731,1787.5264,-1592.9418,-173.6568,-145.6672,3202.361,-3852.1717,-3032.0512,-4694.7279,-294.5526,3103.8826,2188.3364,-43.1797,313.1081,-4605.2238,1661.9778,2860.4909,793.4917,288.631,379.165,608.3228,-2029.925,-2785.4045,-3018.8288,-2182.9482,-1802.4591,2771.9798,341.9804,-1840.0114,1220.1765,12158.291,-1802.5694,-1812.9781,5331.2242,-1116.9718,-3013.036,-2164.7788,-1015.3119,10271.054,-200.8004,1464.8003,-2755.2449,2831.8209,-825.8397,595.2843,-4265.0272,903.4087,-3636.6041,-2621.329,-1665.2329,1309.7726,-518.6348,764.1597,7043.3148,4608.2581,-39492224,-39492224,38.786,714.4615,-1048573.3125,-1048573.3125,200,10739
1:05:06.992,,-3530.5306,-2822.3868,-3150.9058,-1761.1367,-1406.9453,10878.9171,-1420.7562,-1062.0961,-911.5923,8936.363,681.938,-2106.5009,1789.77,-1592.6292,-171.0822,-144.0121,3202.2323,-3863.3712,-3034.6994,-4684.6134,-288.6127,3105.6848,2180.723,-25.6357,318.6987,-4603.5503,1662.364,2855.8199,798.3099,282.8198,370.5953,611.9456,-2034.2834,-2788.1447,-3023.7206,-2189.2008,-1806.229,2769.5891,338.4496,-1842.8619,1219.8639,12156.5255,-1806.0267,-1807.8289,5331.7943,-1114.9857,-3012.4475,-2161.1744,-1014.2637,10268.3874,-185.408,1466.4554,-2753.2772,2823.8029,-807.2842,600.8932,-4265.9834,905.3397,-3639.0683,-2625.5587,-1663.0996,1300.9822,-501.3298,765.8332,7042.7631,4601.4538,-39492224,-39492224,38.494,714.5905,-1048573.3125,-1048573.3125,200,10740
1:05:06.992,,-3528.71,-2821.0076,-3148.607,-1756.6128,-1402.9179,10880.3699,-1422.2826,-1063.3282,-906.535,8938.0732,683.8873,-2107.5308,1799.8477,-1579.9584,-166.9996,-146.3476,3200.7795,-3871.8122,-3021.146,-4675.9885,-285.4864,3101.2896,2167.004,-14.2155,324.9513,-4604.3594,1650.9806,2841.255,801.142,283.114,369.8229,594.0522,-2031.9663,-2785.2574,-3023.4999,-2187.7847,-1804.5371,2773.6349,337.2542,-1844.4802,1222.6224,12158.622,-1806.0819,-1800.7304,5334.7551,-1120.3188,-3019.8587,-2155.3815,-1014.4476,10260.3142,-170.1259,1468.2944,-2758.0034,2809.6058,-797.6479,606.1344,-4272.8613,887.8508,-3637.0638,-2628.5746,-1653.8679,1284.2289,-488.4936,745.1996,7044.363,4583.0454,-39492224,-39492224,38.3627,714.8322,-1048573.3125,-1048573.3125,200,10741
1:05:06.993,,-3525.3814,-2818.8927,-3148.6254,-1753.4313,-1401.4467,10884.1766,-1419.8735,-1063.2362,-903.5191,8938.3123,681.1104,-2105.3424,1811.3966,-1572.8415,-164.9399,-146.1453,3195.9245,-3874.1845,-3000.2733,-4670.9128,-283.4818,3098.1081,2158.3056,-11.457,325.4294,-4606.2904,1641.7488,2834.2852,802.227,297.164,377.5835,578.6046,-2027.9572,-2783.6023,-3022.985,-2188.318,-1802.4774,2773.3591,338.5967,-1843.0458,1225.528,12160.4794,-1807.0382,-1793.8525,5338.0653,-1120.3004,-3024.4562,-2153.5609,-1015.9188,10254.9444,-168.4708,1468.5886,-2761.8102,2803.2245,-803.2016,606.3551,-4279.7943,873.2124,-3632.0985,-2633.356,-1647.1555,1280.1095,-495.4818,729.4393,7049.1628,4566.4025,-39492224,-39492224,38.2714,714.7667,-1048573.3125,-1048573.3125,200,10742
1:05:06.993,,-3524.3515,-2816.7779,-3146.4186,-1753.7072,-1397.3825,10886.696,-1419.1195,-1064.2109,-902.3421,8940.1329,679.3266,-2104.6251,1814.0815,-1567.5636,-163.671,-145.7591,3193.8281,-3876.7223,-2985.5429,-4670.1772,-282.4888,3096.6737,2157.7171,-14.9695,322.156,-4607.78,1639.5788,2832.4462,802.0431,308.4371,381.8132,571.3773,-2026.6883,-2780.6599,-3020.4287,-2187.7663,-1800.5465,2775.1429,341.9069,-1841.6665,1229.5186,12160.1483,-1806.0267,-1791.3699,5338.1388,-1121.9187,-3029.3111,-2153.377,-1015.6245,10252.2778,-174.4475,1468.1472,-2766.9226,2802.6911,-810.1714,606.8884,-4284.0608,861.829,-3628.9722,-2633.9261,-1639.5237,1278.1418,-504.4377,720.5202,7056.9785,4545.493,-39492224,-39492224,38.5395,714.9552,-1048573.3125,-1048573.3125,200,10743
1:05:06.994,,-3520.4161,-2813.7987,-3141.7476,-1748.9625,-1395.1757,10889.3258,-1416.6369,-1059.7054,-896.7516,8940.4823,680.6139,-2098.4093,1794.7169,-1565.5775,-159.2022,-145.1155,3194.4165,-3867.4905,-2964.8542,-4671.1887,-285.6335,3095.3128,2160.3101,-28.0815,321.4388,-4610.5753,1637.0226,2828.29,800.4983,314.1931,386.4475,563.0098,-2024.5919,-2778.8209,-3018.038,-2181.6609,-1797.0708,2776.4486,342.8632,-1840.5999,1231.8909,12162.6678,-1804.1325,-1787.8574,5338.856,-1121.9371,-3035.8947,-2153.4506,-1018.4566,10248.1584,-189.0676,1466.1427,-2767.0697,2801.1464,-820.194,605.4356,-4288.6399,855.2821,-3629.2481,-2630.1562,-1635.6801,1279.7417,-515.4717,713.4217,7059.5899,4504.3362,-39492224,-39492224,38.62,715.1276,-1048573.3125,-1048573.3125,200,10744
1:05:06.994,,-3516.4622,-2810.9299,-3138.6764,-1745.5236,-1394.4585,10892.5073,-1414.7611,-1054.5745,-897.6159,8943.7741,681.8276,-2099.4943,1765.4032,-1568.2256,-160.2872,-142.5409,3191.5109,-3857.376,-2952.5145,-4672.6415,-286.8288,3096.0484,2169.1189,-48.0715,315.8482,-4609.4902,1636.1031,2836.2161,798.3099,314.046,391.6518,565.1247,-2023.7459,-2778.5819,-3014.5439,-2178.6081,-1797.9167,2778.3612,345.0332,-1838.4851,1234.3736,12163.8263,-1801.5212,-1787.8022,5339.5549,-1123.7945,-3043.9496,-2155.6574,-1016.3601,10249.5377,-203.7796,1464.2302,-2764.8261,2806.6818,-837.9587,600.4703,-4284.9803,856.9556,-3631.1239,-2629.3286,-1624.1496,1289.4884,-532.7583,715.0584,7065.015,4480.9993,-39492224,-39492224,38.5897,715.0826,-1048573.3125,-1048573.3125,200,10745
1:05:06.995,,-3514.2738,-2810.4885,-3138.7132,-1746.3144,-1392.3988,10892.8383,-1412.6278,-1052.1103,-897.1745,8944.7856,684.7884,-2097.4898,1743.7766,-1572.9519,-161.3355,-141.6214,3190.573,-3852.0245,-2957.5349,-4673.8552,-289.4586,3097.5196,2178.1484,-57.3584,309.2278,-4609.8213,1640.3328,2852.4361,795.4778,315.1862,393.546,569.3176,-2021.5575,-2777.3497,-3011.7303,-2180.3184,-1795.9674,2776.7429,342.5505,-1838.908,1233.7851,12165.6653,-1799.5718,-1791.1492,5339.5916,-1120.9624,-3051.232,-2155.8229,-1018.3462,10250.1078,-215.6595,1461.0303,-2763.5204,2822.1662,-848.2755,595.7073,-4281.2655,863.7783,-3636.0708,-2630.7447,-1617.6212,1298.5179,-542.9647,719.9501,7073.4376,4494.4424,-39492224,-39492224,38.6132,715.1144,-1048573.3125,-1048573.3125,200,10746
1:05:06.995,,-3515.6163,-2809.6426,-3138.7316,-1744.7512,-1391.6448,10893.5371,-1410.9727,-1052.7539,-898.2412,8943.6454,682.9126,-2099.384,1760.3827,-1584.5743,-163.7997,-142.5777,3190.5546,-3848.8982,-2989.9381,-4682.2595,-287.9138,3099.8,2189.7157,-62.3973,305.7521,-4609.5638,1644.8384,2864.0218,789.9241,309.0623,391.5967,575.0369,-2021.2081,-2775.9337,-3011.7487,-2181.2747,-1794.8088,2780.4025,346.7067,-1839,1230.4565,12168.056,-1799.7741,-1799.535,5340.695,-1120.9257,-3052.9974,-2160.1078,-1016.1578,10254.9627,-219.1536,1461.9682,-2760.8723,2834.892,-850.4823,593.8131,-4279.0955,867.6218,-3641.3855,-2628.8137,-1627.1656,1313.2667,-545.1715,726.5521,7066.9643,4520.4459,-39492224,-39492224,38.5502,715.1285,-1048573.3125,-1048573.3125,200,10747
1:05:06.996,,-3515.1565,-2810.2494,-3138.0696,-1746.8845,-1391.9943,10892.8015,-1412.021,-1053.7286,-897.5239,8943.5535,682.9494,-2096.9565,1806.5416,-1594.7624,-168.2501,-139.672,3193.6809,-3844.595,-3015.5922,-4694.2681,-287.9506,3101.1241,2203.1588,-65.1006,300.8972,-4609.2328,1650.3186,2869.0423,788.269,301.7615,386.852,583.9377,-2023.2678,-2778.0118,-3012.9072,-2179.123,-1796.2432,2780.145,346.0262,-1837.6023,1228.4704,12166.6768,-1799.535,-1810.2196,5338.4147,-1118.3327,-3049.6137,-2164.9443,-1014.8521,10257.3718,-226.4912,1462.759,-2759.7137,2838.5149,-852.3581,593.1694,-4274.8842,878.3432,-3643.4819,-2626.1104,-1660.6538,1325.4225,-547.599,738.2114,7058.8543,4518.9379,-39492224,-39492224,38.7167,715.088,-1048573.3125,-1048573.3125,200,10748
1:05:06.996,,-3521.5379,-2810.8747,-3142.0786,-1751.3716,-1396.7389,10888.3511,-1415.4415,-1054.2251,-902.8938,8944.1971,684.9907,-2096.129,1842.7148,-1607.2124,-173.4177,-137.0423,3197.0831,-3842.6824,-3018.1484,-4704.6033,-288.7782,3106.7514,2209.9815,-68.9073,301.3201,-4605.7571,1661.279,2881.4187,791.947,306.5245,384.9946,599.8634,-2027.7917,-2783.8414,-3016.1439,-2180.4103,-1800.804,2778.1405,345.5481,-1840.7838,1223.597,12163.5873,-1799.4063,-1821.0513,5332.2172,-1116.3833,-3048.3632,-2171.3808,-1016.636,10261.3992,-230.537,1460.9384,-2755.153,2848.5742,-846.7859,593.0775,-4271.5004,894.0666,-3648.907,-2626.6805,-1702.2152,1331.9877,-543.0383,752.1142,7060.7853,4498.2675,-39492224,-39492224,38.727,714.9786,-1048573.3125,-1048573.3125,200,10749
1:05:06.997,,-3521.1517,-2814.7918,-3143.2739,-1752.567,-1398.0078,10885.4271,-1414.3013,-1056.1193,-904.2731,8942.542,685.9838,-2096.129,1856.5624,-1611.7548,-173.8223,-137.4101,3196.182,-3850.1855,-3005.3306,-4710.1203,-288.5207,3109.3812,2204.8323,-70.3601,304.1522,-4606.2168,1660.4147,2878.8809,798.6593,315.6643,393.5644,605.6379,-2029.7962,-2783.6023,-3020.5391,-2183.978,-1802.9924,2777.6624,344.8125,-1842.4757,1222.7143,12162.0977,-1801.7051,-1824.4903,5333.5413,-1118.7373,-3051.8021,-2171.8038,-1016.2498,10262.5578,-230.4451,1460.0005,-2752.1187,2848.0961,-839.6322,599.2933,-4268.2086,899.5468,-3649.4955,-2632.2526,-1721.0649,1325.4409,-535.3513,758.1645,7071.4331,4468.4573,-39492224,-39492224,38.6977,714.7628,-1048573.3125,-1048573.3125,200,10750
1:05:06.997,,-3519.1472,-2814.9941,-3141.7108,-1748.8706,-1397.8423,10882.6134,-1415.6438,-1055.1998,-900.9629,8942.873,685.524,-2098.961,1861.0312,-1610.3019,-173.6568,-136.5457,3194.251,-3856.5669,-2985.0832,-4710.7456,-286.7001,3107.156,2197.6418,-75.1231,304.2442,-4603.771,1653.4817,2869.3549,803.1281,322.3583,403.4398,603.192,-2029.9985,-2782.6644,-3018.9024,-2185.8538,-1803.0108,2779.0048,346.5228,-1843.5239,1225.0682,12162.2264,-1802.2752,-1825.9063,5333.8907,-1117.7994,-3053.0526,-2170.3142,-1014.6499,10260.351,-234.0495,1463.0716,-2754.7668,2835.0575,-833.0854,603.6701,-4269.7902,895.1332,-3642.8935,-2633.7054,-1726.9681,1316.8159,-528.4183,753.1257,7070.7527,4438.3161,-39492224,-39492224,38.6972,714.8072,-1048573.3125,-1048573.3125,200,10751
1:05:06.998,,-3521.8873,-2815.3986,-3143.1636,-1751.7578,-1399.7732,10881.6204,-1417.0966,-1056.009,-904.6593,8942.7811,687.4918,-2101.7379,1856.9486,-1610.5594,-176.213,-134.8906,3194.3246,-3861.8816,-2967.1161,-4710.0652,-285.0634,3106.8617,2194.8833,-73.6519,305.2924,-4602.5388,1651.7346,2863.3781,805.3349,327.4891,409.8211,601.1507,-2032.4444,-2783.3265,-3016.953,-2184.1435,-1802.6613,2778.4531,348.4537,-1841.6849,1225.2154,12161.4724,-1802.9924,-1831.9014,5332.7322,-1115.942,-3051.3239,-2170.5717,-1015.9372,10258.7695,-232.045,1463.7153,-2756.1093,2831.5818,-826.042,607.5136,-4268.8339,892.1357,-3642.0107,-2635.5261,-1726.067,1312.0345,-521.2829,751.2315,7066.5965,4430.3349,-39492224,-39492224,38.7479,714.797,-1048573.3125,-1048573.3125,200,10752
1:05:06.998,,-3524.3147,-2816.2814,-3145.3152,-1753.4865,-1401.2812,10878.9171,-1416.8575,-1053.1769,-904.5673,8942.6524,684.3655,-2100.561,1852.6821,-1610.7617,-171.781,-137.9434,3195.0786,-3863.9045,-2960.7348,-4705.9274,-283.5738,3107.7996,2190.4329,-63.7581,307.8486,-4602.4469,1651.2933,2859.6266,805.4084,322.8732,406.6581,595.9831,-2032.5915,-2788.6228,-3020.9621,-2185.4492,-1805.5486,2776.4854,349.1341,-1843.5423,1225.6199,12162.3551,-1802.882,-1827.0649,5334.1114,-1117.8545,-3045.5495,-2167.7764,-1015.2567,10262.0429,-225.8844,1464.4141,-2754.6933,2828.9337,-821.5549,606.87,-4270.9303,888.9542,-3640.7051,-2633.6135,-1718.6926,1307.8416,-518.6532,747.1305,7065.4196,4431.3831,-39492224,-39492224,38.7914,714.8458,-1048573.3125,-1048573.3125,200,10753
1:05:06.999,,-3524.9952,-2821.1363,-3150.2621,-1752.1256,-1400.4353,10879.3584,-1421.0321,-1056.8549,-902.8387,8940.0226,681.7725,-2103.8528,1852.2776,-1607.1573,-168.526,-137.8698,3194.2326,-3866.2584,-2965.3691,-4700.7414,-283.1324,3104.14,2187.9502,-57.1929,311.1588,-4605.095,1648.9945,2856.96,804.305,314.469,398.0883,589.1788,-2031.4329,-2784.7977,-3020.8885,-2187.3066,-1802.7533,2778.3612,348.987,-1846.3744,1228.1761,12161.7483,-1805.7876,-1819.0101,5334.1482,-1117.0638,-3041.0439,-2163.9697,-1014.8705,10263.2382,-216.1193,1467.3197,-2754.3255,2828.9337,-817.7297,607.2746,-4271.9786,883.474,-3634.949,-2633.9261,-1710.4907,1307.9704,-514.6441,742.4595,7051.8661,4431.5854,-39492224,-39492224,38.6869,714.881,-1048573.3125,-1048573.3125,200,10754
1:05:06.999,,-3524.6458,-2819.0399,-3149.2875,-1751.8498,-1398.7066,10878.9171,-1418.8437,-1056.5423,-903.2065,8940.9053,681.5886,-2103.3378,1844.94,-1604.4723,-166.9444,-138.5686,3196.0165,-3865.2653,-2964.6519,-4697.9278,-285.2841,3103.6987,2182.562,-56.9722,312.3358,-4605.5364,1650.5209,2857.8428,800.9397,309.4485,390.6404,585.9422,-2028.086,-2784.4667,-3021.2195,-2184.8975,-1804.482,2778.8761,346.8722,-1843.101,1227.4038,12164.3597,-1806.4681,-1814.1367,5335.6562,-1116.9534,-3037.3659,-2165.2202,-1012.1488,10261.8958,-214.0596,1465.6094,-2755.7231,2827.1498,-813.1506,606.8516,-4272.9532,881.7637,-3630.2044,-2633.9077,-1712.5687,1301.0557,-511.5178,740.6021,7036.9151,4426.9143,-39492224,-39492224,38.7631,714.797,-1048573.3125,-1048573.3125,200,10755
1:05:07.000,,-3524.6274,-2820.2536,-3148.8645,-1755.3071,-1401.1893,10880.0756,-1418.6598,-1055.494,-906.3511,8942.211,683.2804,-2104.6619,1831.1107,-1603.0563,-168.7282,-140.1318,3199.2347,-3864.3826,-2967.7414,-4701.5874,-285.6703,3103.0918,2181.0724,-67.3258,311.9496,-4604.5617,1650.999,2861.2081,802.1718,306.3958,387.7531,586.1077,-2028.5457,-2782.9587,-3015.629,-2181.5689,-1801.9625,2780.0898,349.5019,-1839.4046,1225.859,12164.3045,-1803.0843,-1814.4126,5337.0906,-1116.6408,-3030.1938,-2164.7788,-1013.3626,10265.3899,-224.0821,1468.2024,-2758.6839,2828.7314,-811.8082,607.8447,-4271.1142,879.3362,-3629.6343,-2627.8574,-1715.5295,1301.4971,-504.9526,741.3745,7022.4973,4423.4202,-39492224,-39492224,38.8412,714.8995,-1048573.3125,-1048573.3125,200,10756
1:05:07.000,,-3521.8873,-2820.7133,-3149.2691,-1754.8473,-1401.5019,10883.772,-1419.9471,-1054.8688,-906.0017,8943.4063,684.3655,-2103.4298,1821.7318,-1595.8474,-167.7536,-141.8972,3197.9106,-3862.0103,-2975.2077,-4701.2931,-288.5575,3100.0574,2177.8173,-64.8064,314.1931,-4605.0583,1648.5899,2858.045,800.9397,301.7615,385.7486,587.1559,-2026.155,-2781.4323,-3016.5485,-2181.3114,-1798.3397,2781.4139,350.8812,-1837.8782,1225.2889,12164.047,-1803.8383,-1814.2103,5337.7342,-1116.0523,-3028.9249,-2163.4731,-1012.1856,10262.6314,-220.7536,1469.7104,-2756.2932,2828.4371,-812.2679,607.6056,-4270.9671,878.5271,-3627.5746,-2626.3494,-1710.8769,1295.9249,-506.1664,739.186,7012.5115,4431.8612,-39492224,-39492224,38.8183,714.8024,-1048573.3125,-1048573.3125,200,10757
1:05:07.000,,-3520.4896,-2819.8122,-3150.115,-1755.1232,-1399.7548,10886.5489,-1418.1816,-1053.2505,-903.7765,8943.5351,683.3356,-2103.1539,1813.2356,-1583.5445,-168.4156,-140.4444,3199.8784,-3859.9874,-2986.2969,-4701.7345,-289.054,3099.8,2173.2382,-66.8109,313.1265,-4606.8789,1648.5715,2853.8337,797.0594,299.4995,384.3694,584.8204,-2020.8219,-2778.729,-3011.859,-2179.215,-1796.9237,2782.0392,351.1387,-1836.0576,1227.2566,12165.2792,-1802.3303,-1810.661,5339.7939,-1115.6477,-3027.6744,-2165.2754,-1010.696,10265.6289,-220.6432,1469.5633,-2755.0978,2824.3546,-822.2905,603.5046,-4270.5993,878.0673,-3626.8942,-2621.991,-1706.9046,1296.3663,-515.5269,739.186,7008.6864,4444.8262,-39492224,-39492224,38.6703,714.7745,-1048573.3125,-1048573.3125,200,10758
1:05:07.001,,-3519.9011,-2815.7297,-3146.4186,-1756.0611,-1399.9387,10890.7786,-1415.6254,-1049.646,-904.5121,8942.5236,687.6757,-2100.3954,1808.6933,-1569.6417,-168.4708,-141.9892,3205.4138,-3855.9416,-2994.3149,-4702.4517,-290.7643,3099.3402,2171.8958,-76.7599,308.1612,-4604.8376,1649.0497,2852.0867,793.0871,298.8191,386.1532,586.0709,-2019.645,-2779.1703,-3007.9603,-2179.1782,-1796.0226,2783.6391,351.2674,-1834.8255,1226.4659,12168.5342,-1798.9466,-1807.5531,5340.0698,-1116.7695,-3022.8011,-2165.7167,-1010.3834,10267.284,-229.9486,1466.6577,-2756.8081,2823.9684,-838.4553,599.8266,-4269.8453,879.6489,-3623.2713,-2616.8234,-1703.3553,1296.3479,-531.8388,739.7745,7003.7395,4464.338,-39492224,-39492224,38.7318,714.5006,-1048573.3125,-1048573.3125,200,10759
1:05:07.001,,-3518.0438,-2813.9274,-3145.2233,-1757.6058,-1399.7364,10893.4452,-1415.2208,-1047.9725,-906.5534,8943.2776,687.0504,-2096.7726,1805.7141,-1564.9338,-168.5076,-143.3317,3204.954,-3852.4291,-3001.2296,-4703.2425,-292.401,3099.7264,2174.1393,-81.2286,306.6165,-4605.7387,1650.4841,2848.3535,787.1839,297.3479,387.1647,586.4019,-2021.1162,-2777.3497,-3005.3857,-2173.4773,-1794.7536,2785,352.8673,-1830.3751,1223.9832,12169.1043,-1799.5718,-1806.4313,5339.4997,-1113.4777,-3018.792,-2167.8867,-1010.273,10270.0977,-235.9989,1464.8554,-2755.153,2822.442,-844.3401,597.4175,-4270.1947,881.9476,-3627.3355,-2613.5868,-1700.2474,1299.6029,-539.6729,741.9078,6999.5098,4473.0364,-39492224,-39492224,38.6957,714.6256,-1048573.3125,-1048573.3125,200,10760
1:05:07.002,,-3516.8668,-2814.6446,-3146.9519,-1758.084,-1399.9387,10894.7692,-1415.6806,-1047.3841,-905.0271,8943.7374,687.3446,-2095.2095,1806.0083,-1565.4855,-170.3833,-145.4649,3207.2528,-3852.9624,-3002.3882,-4704.3091,-294.8469,3097.8506,2171.2521,-80.254,307.2049,-4606.9524,1646.0889,2842.4687,786.7058,297.1824,386.2268,584.9859,-2017.0336,-2774.0027,-3004.5214,-2170.6636,-1791.7377,2785.8643,352.9777,-1828.3706,1223.9832,12166.7504,-1799.627,-1806.2842,5340.5847,-1112.1169,-3017.3208,-2166.3236,-1008.3237,10267.3944,-235.0058,1462.4463,-2756.661,2817.6238,-842.0229,596.8107,-4267.2891,881.2304,-3628.0711,-2612.134,-1698.0774,1300.5224,-535.6087,739.701,7002.0476,4480.2637,-39492224,-39492224,38.7113,714.4728,-1048573.3125,-1048573.3125,200,10761
1:05:07.002,,-3517.4001,-2811.1689,-3146.3083,-1756.999,-1398.8353,10894.1808,-1414.2829,-1046.6852,-903.8317,8942.7075,687.3262,-2098.1703,1806.983,-1560.2628,-171.3396,-146.0166,3206.7194,-3857.2841,-2989.9933,-4706.24,-294.3871,3095.2393,2164.3375,-77.1644,307.3705,-4606.6582,1646.2544,2845.2824,786.4116,294.0561,382.8246,583.4963,-2015.875,-2772.035,-3004.3559,-2172.3923,-1789.6044,2781.3587,350.7341,-1829.7314,1223.8361,12166.971,-1798.211,-1805.7141,5340.456,-1113.9559,-3011.951,-2167.4454,-1010.4385,10267.1185,-231.7324,1463.2555,-2755.9805,2818.0284,-838.584,593.997,-4266.2777,877.1662,-3631.3813,-2611.803,-1694.8959,1291.9894,-530.4044,738.0643,7002.0476,4492.0701,-39492224,-39492224,38.6395,714.3356,-1048573.3125,-1048573.3125,200,10762
1:05:07.003,,-3516.6461,-2813.4309,-3147.283,-1757.5139,-1400.472,10895.1738,-1415.0001,-1051.3379,-904.7144,8942.4133,686.6642,-2099.9173,1804.4636,-1555.1687,-170.1627,-146.4396,3207.3815,-3858.3507,-2979.0512,-4702.6908,-295.0492,3097.7771,2159.3538,-75.4174,307.6095,-4608.2949,1646.6958,2848.2616,786.3748,291.1137,382.9901,581.4918,-2015.0475,-2772.3109,-3002.5169,-2172.8337,-1788.6114,2779.5565,348.8583,-1829.8969,1223.4131,12166.1803,-1801.4108,-1805.3647,5339.6284,-1114.434,-3005.5145,-2168.1074,-1011.1558,10268.2587,-227.2452,1464.9106,-2758.7574,2822.8282,-834.8692,595.413,-4268.1351,876.1732,-3632.2457,-2614.0649,-1697.2683,1284.7254,-528.7493,737.862,7001.1649,4502.2214,-39492224,-39492224,38.5526,714.4781,-1048573.3125,-1048573.3125,200,10763
1:05:07.003,,-3519.3678,-2813.0999,-3149.4346,-1756.7599,-1397.0883,10896.5163,-1417.9058,-1054.8136,-903.7214,8943.5351,684.5861,-2102.639,1804.7946,-1555.4078,-172.9947,-147.3958,3208.632,-3858.2036,-2979.0145,-4702.8195,-295.3802,3094.5221,2153.4138,-70.6176,310.2209,-4607.7432,1646.3831,2848.4455,786.1725,288.8701,381.335,580.1309,-2014.7532,-2771.9063,-3002.4065,-2170.9027,-1787.4528,2781.1381,348.9135,-1828.7384,1222.0155,12165.8492,-1803.7831,-1806.2474,5340.2905,-1114.765,-3003.1973,-2166.9672,-1012.1856,10267.9093,-220.68,1464.2853,-2759.0885,2825.5867,-833.4348,596.921,-4269.0546,874.0951,-3632.779,-2613.973,-1693.6086,1284.3576,-523.2874,735.269,7004.7509,4518.3678,-39492224,-39492224,38.5741,714.4669,-1048573.3125,-1048573.3125,200,10764
1:05:07.004,,-3517.5104,-2813.9274,-3147.0807,-1753.5784,-1394.4585,10898.484,-1418.9908,-1058.0503,-900.9629,8939.7651,685.4321,-2101.3149,1813.677,-1564.1063,-173.5096,-149.0142,3207.3263,-3857.7622,-2982.5637,-4699.6564,-296.3548,3091.9291,2150.214,-62.195,314.0092,-4608.9202,1643.1097,2845.2272,786.4851,289.2931,378.0248,577.9425,-2012.7303,-2770.2696,-3003.2525,-2172.8704,-1785.9081,2782.076,346.2101,-1829.0878,1222.4569,12165.7573,-1802.8269,-1808.068,5340.2353,-1116.6592,-3003.087,-2165.6983,-1010.4937,10266.4381,-213.6366,1465.4991,-2761.5527,2823.3431,-830.1982,596.9394,-4268.4477,872.9917,-3635.4455,-2615.7384,-1690.2801,1279.4107,-520.0692,734.7541,7021.118,4548.7297,-39492224,-39492224,38.7055,714.338,-1048573.3125,-1048573.3125,200,10765
1:05:07.004,,-3515.6347,-2810.5805,-3149.1404,-1753.0819,-1392.6931,10899.1461,-1417.869,-1059.2456,-900.8893,8941.7512,685.9654,-2101.2414,1818.2745,-1582.2756,-172.3143,-148.8854,3209.7906,-3856.2542,-2986.1682,-4698.6634,-296.5387,3088.5637,2150.5818,-58.0572,313.4575,-4610.8695,1641.381,2843.5905,787.4414,288.7782,376.241,577.4092,-2011.5534,-2768.8168,-3000.5859,-2170.1855,-1784.3265,2780.7887,344.3711,-1826.9178,1222.3465,12167.0814,-1802.9004,-1804.1142,5341.2467,-1119.4177,-3010.8843,-2164.6501,-1009.9972,10264.5072,-210.6023,1465.3887,-2760.7068,2819.1318,-826.0604,598.006,-4269.8637,872.2929,-3643.0774,-2616.0143,-1685.7745,1281.8749,-516.2992,734.2024,7038.9563,4573.8136,-39492224,-39492224,38.6186,714.0704,-1048573.3125,-1048573.3125,200,10766
1:05:07.005,,-3513.1336,-2807.9875,-3146.2163,-1754.4795,-1393.7597,10900.8931,-1414.3197,-1059.1353,-900.8341,8943.1305,686.0941,-2099.8805,1813.6402,-1589.7603,-169.942,-149.1245,3206.5723,-3851.5464,-2998.5814,-4699.6564,-297.9364,3090.2004,2153.469,-61.5697,312.9978,-4611.127,1642.4661,2842.5055,790.7148,291.647,378.5581,574.7243,-2009.3098,-2767.3823,-2998.5263,-2167.2431,-1781.7703,2782.5541,346.0998,-1827.3591,1226.0797,12166.64,-1801.6867,-1802.4039,5341.7065,-1120.4843,-3017.2289,-2165.4593,-1009.7029,10261.2521,-214.0044,1466.4002,-2758.9229,2817.6054,-827.6787,598.2083,-4270.3419,874.0215,-3648.9438,-2613.55,-1687.3928,1286.638,-518.929,733.6323,7048.4088,4596.3598,-39492224,-39492224,38.6044,714.0939,-1048573.3125,-1048573.3125,200,10767
1:05:07.005,,-3514.9358,-2811.0402,-3143.4946,-1752.6957,-1394.1275,10905.086,-1413.6945,-1055.1262,-901.2387,8943.5167,685.2482,-2099.0898,1809.9438,-1591.0292,-169.3167,-148.2234,3204.1081,-3843.6387,-3011.5832,-4701.8632,-295.656,3090.7521,2163.0134,-66.2408,310.2761,-4610.5201,1643.1465,2844.8962,789.2804,294.2032,380.342,579.5425,-2009.3466,-2768.9823,-2999.3722,-2168.3465,-1785.3012,2781.5059,346.5595,-1825.6856,1224.8476,12166.1435,-1798.873,-1799.9948,5341.7617,-1119.0315,-3017.4312,-2165.5328,-1012.2775,10263.1279,-217.4617,1464.7635,-2761.1114,2817.5687,-831.559,599.845,-4269.5695,874.2054,-3651.9046,-2615.1867,-1687.9077,1292.7434,-523.5633,736.3172,7056.813,4621.4254,-39492224,-39492224,38.6342,714.0724,-1048573.3125,-1048573.3125,200,10768
1:05:07.006,,-3517.9518,-2812.7873,-3144.8739,-1753.1003,-1395.3596,10899.5139,-1413.9703,-1051.4115,-901.6433,8943.4799,685.1378,-2097.453,1812.3713,-1597.4657,-169.3351,-147.3591,3202.8392,-3845.1651,-3007.85,-4700.5024,-292.9343,3094.8531,2169.7074,-66.7557,311.1772,-4607.2834,1645.2981,2851.7373,788.4345,295.2882,382.1074,582.871,-2014.9739,-2772.366,-3001.9836,-2169.7809,-1788.6482,2778.1037,345.3826,-1826.3477,1221.8684,12164.801,-1799.7925,-1800.4729,5336.0791,-1118.7924,-3020.4839,-2165.8087,-1011.8546,10264.1026,-219.1352,1463.8624,-2760.0631,2823.95,-833.4716,599.2381,-4267.0868,879.2259,-3654.9205,-2616.7866,-1689.4893,1299.1799,-523.9679,739.1309,7066.9275,4638.7855,-39492224,-39492224,38.6542,714.1149,-1048573.3125,-1048573.3125,200,10769
1:05:07.006,,-3517.9702,-2813.2102,-3146.5106,-1754.6634,-1399.2399,10893.6842,-1414.7979,-1051.5034,-905.6339,8944.3994,685.3953,-2100.046,1817.6676,-1597.8887,-170.365,-145.7224,3204.2736,-3840.9538,-3003.7306,-4698.2956,-295.8583,3094.8163,2175.7393,-62.103,310.2393,-4605.9226,1647.1003,2856.6842,791.1378,294.8653,383.4867,582.0619,-2020.3254,-2772.1086,-3004.172,-2172.1348,-1790.9285,2777.3865,343.3781,-1828.9407,1222.1258,12160.5161,-1803.1395,-1799.0569,5337.5136,-1121.0912,-3024.1987,-2164.4846,-1012.9948,10262.4843,-214.5193,1463.3107,-2759.5114,2828.4004,-832.1107,598.006,-4267.4362,880.1454,-3660.1065,-2619.8762,-1686.4917,1307.0509,-524.2989,740.4733,7074.541,4640.9371,-39492224,-39492224,38.7797,714.0514,-1048573.3125,-1048573.3125,200,10770
1:05:07.007,,-3521.2068,-2815.9503,-3149.2323,-1755.3623,-1400.0675,10891.551,-1417.3173,-1053.8757,-904.2547,8944.0316,682.4713,-2102.639,1819.7273,-1587.8294,-165.8226,-145.8511,3200.3197,-3842.2595,-3002.9582,-4695.9049,-292.3458,3094.5772,2181.385,-62.5444,312.8691,-4607.6329,1646.1624,2861.1162,788.0483,292.2907,379.588,579.7815,-2017.6221,-2773.3775,-3005.68,-2172.944,-1789.9171,2776.5406,341.9253,-1832.5819,1224.6085,12162.1345,-1804.1142,-1792.3997,5338.6905,-1120.5763,-3032.9156,-2162.4985,-1011.6891,10262.4475,-214.0228,1463.4394,-2761.5527,2833.6231,-831.9636,594.5855,-4269.3856,877.3501,-3655.4722,-2622.6163,-1680.9747,1313.8368,-524.9058,737.7332,7078.4029,4637.5166,-39492224,-39492224,38.7367,714.1759,-1048573.3125,-1048573.3125,200,10771
1:05:07.007,,-3521.0597,-2815.9319,-3148.1841,-1757.7714,-1399.2399,10890.135,-1419.2482,-1055.7147,-904.3099,8944.0684,682.8943,-2102.6206,1818.3664,-1577.2735,-161.8136,-145.3729,3197.6532,-3852.8521,-2997.2573,-4692.4108,-291.5734,3092.8486,2181.8815,-61.1835,314.6713,-4606.5478,1646.236,2861.2633,788.2138,292.6585,376.7375,577.2621,-2017.8427,-2775.6762,-3006.0294,-2174.0474,-1789.3654,2776.3934,342.9919,-1836.2599,1226.5394,12161.9506,-1803.728,-1783.407,5341.3203,-1120.8889,-3039.6831,-2159.5929,-1012.9212,10260.1855,-214.5193,1463.7888,-2760.2286,2837.246,-832.8095,595.5418,-4271.3533,871.4285,-3646.2404,-2627.8023,-1676.1198,1309.1289,-524.5196,732.4737,7076.8949,4627.1998,-39492224,-39492224,38.6996,714.0665,-1048573.3125,-1048573.3125,200,10772
1:05:07.008,,-3523.0091,-2816.6492,-3149.0668,-1759.0035,-1398.8905,10890.1533,-1417.5012,-1059.2824,-905.3213,8944.2523,680.6139,-2105.7102,1816.178,-1573.5403,-160.2505,-146.2373,3199.5841,-3863.316,-2991.6852,-4689.8913,-291.7206,3092.113,2177.045,-62.103,314.9471,-4604.5249,1645.0039,2863.4517,787.2943,291.647,377.0869,575.7541,-2019.884,-2777.0371,-3006.6362,-2176.3094,-1790.0826,2776.5406,343.4884,-1836.4438,1227.9922,12163.7528,-1803.8935,-1781.0531,5342.6444,-1118.6453,-3043.8576,-2158.8756,-1012.0569,10261.4544,-217.3882,1465.1497,-2757.6724,2835.8667,-831.0257,596.1486,-4270.9855,870.7113,-3633.6249,-2630.7079,-1672.1843,1306.2601,-520.3818,732.4001,7072.5917,4619.9542,-39492224,-39492224,38.7436,714.0294,-1048573.3125,-1048573.3125,200,10773
1:05:07.008,,-3525.0871,-2817.3664,-3151.6966,-1758.7828,-1400.5088,10889.0867,-1418.4023,-1062.1328,-907.2523,8944.4362,681.6253,-2106.4825,1816.601,-1573.0622,-158.6137,-145.8143,3199.3083,-3866.7182,-2992.5127,-4688.9718,-290.0471,3094.7979,2183.7757,-61.3123,315.5908,-4604.5433,1649.2336,2866.9826,787.8092,293.9825,379.1834,575.8645,-2025.5849,-2781.8921,-3011.3993,-2178.0564,-1794.2571,2776.3751,339.2587,-1836.9035,1227.036,12159.4863,-1806.8727,-1781.2922,5342.626,-1120.9992,-3036.9981,-2159.2986,-1012.8292,10260.2591,-216.34,1466.1795,-2755.7231,2840.3906,-829.9959,597.3256,-4269.5879,875.272,-3634.2869,-2633.448,-1669.1683,1309.8645,-522.9013,735.4897,7065.8609,4635.5673,-39492224,-39492224,38.6942,714.0216,-1048573.3125,-1048573.3125,200,10774
1:05:07.009,,-3525.2526,-2823.1592,-3152.6161,-1761.339,-1405.3638,10883.864,-1424.1032,-1065.2959,-908.6867,8942.1558,685.8918,-2108.3767,1815.847,-1573.9633,-155.9104,-144.4902,3202.0484,-3870.764,-2994.4621,-4687.9788,-287.2886,3098.6046,2188.9249,-56.8619,316.0138,-4604.5249,1653.8127,2872.0398,791.3585,293.0814,377.8777,581.1976,-2028.6009,-2784.5586,-3017.4128,-2182.1574,-1802.0913,2771.9615,336.6106,-1839.6252,1224.7556,12160.1116,-1808.5278,-1786.3126,5340.2537,-1119.1418,-3027.9135,-2155.8965,-1011.3764,10264.3049,-215.0894,1466.1243,-2757.5621,2845.2272,-829.9223,596.8842,-4267.7489,876.9271,-3631.6388,-2630.4688,-1669.0028,1315.4551,-522.9748,738.2114,7068.7849,4654.7848,-39492224,-39492224,38.5551,714.1573,-1048573.3125,-1048573.3125,200,10775
1:05:07.009,,-3524.1676,-2822.019,-3153.3333,-1762.1666,-1405.1983,10882.9077,-1422.3745,-1064.3396,-909.6613,8943.6086,682.8207,-2108.487,1815.4976,-1573.6323,-156.223,-146.3108,3200.9266,-3869.4399,-3000.3836,-4686.2869,-285.6703,3099.9287,2189.9915,-56.1631,317.9815,-4606.0329,1651.33,2868.6193,791.9102,295.7296,379.1834,581.4734,-2026.6699,-2784.0069,-3014.8934,-2183.2608,-1797.6777,2772.2373,339.3139,-1839.6252,1222.4385,12158.3461,-1808.5278,-1788.6114,5338.4698,-1118.774,-3029.3663,-2154.3885,-1010.1075,10263.9738,-210.9701,1465.7565,-2757.4334,2838.2574,-828.2856,597.1785,-4271.7579,874.7387,-3631.271,-2630.101,-1668.6902,1319.5744,-521.4668,735.7287,7065.8241,4669.5888,-39492224,-39492224,38.6762,714.1207,-1048573.3125,-1048573.3125,200,10776
1:05:07.010,,-3522.6964,-2817.3664,-3148.9197,-1759.0219,-1402.5133,10882.9812,-1418.0161,-1057.9031,-907.7856,8942.7627,683.7586,-2104.478,1822.2467,-1585.126,-155.9656,-143.0006,3199.7312,-3864.1068,-2998.8757,-4688.3282,-287.2702,3098.8069,2191.9225,-53.7724,318.5516,-4603.348,1650.0979,2861.3369,793.9515,296.6491,378.9076,577.5196,-2024.5183,-2782.2782,-3015.206,-2181.9735,-1798.9098,2772.5315,339.2587,-1839.7724,1223.4867,12160.2587,-1804.2797,-1798.5972,5338.8744,-1119.3625,-3036.3545,-2159.5193,-1012.1672,10262.0061,-209.8115,1464.929,-2758.831,2833.8254,-829.5177,599.5876,-4272.659,871.8331,-3635.4639,-2626.6437,-1669.6649,1319.0044,-524.0598,733.3932,7060.0681,4654.1963,-39492224,-39492224,38.8144,714.254,-1048573.3125,-1048573.3125,200,10777
1:05:07.010,,-3522.9355,-2816.5756,-3145.1129,-1758.084,-1400.4353,10884.0846,-1415.8645,-1051.1724,-906.9948,8942.6707,687.4918,-2101.9034,1827.1017,-1599.176,-159.6804,-143.5891,3198.2233,-3862.9114,-2986.1866,-4689.9649,-287.0495,3101.0321,2184.6033,-55.4275,316.6574,-4603.3848,1650.1899,2854.4958,795.6066,302.4419,381.8683,580.1493,-2026.4493,-2780.7335,-3010.3878,-2178.6081,-1800.5833,2773.3775,343.2677,-1835.8001,1221.8868,12160.2219,-1803.5441,-1812.8494,5340.4376,-1120.1717,-3046.4874,-2160.825,-1012.2959,10262.3923,-211.5586,1464.8554,-2758.5735,2827.0027,-829.2603,602.6219,-4270.5809,875.6398,-3642.4521,-2618.7728,-1672.7728,1309.1473,-521.5404,734.1656,7058.9463,4640.459,-39492224,-39492224,38.8769,714.4493,-1048573.3125,-1048573.3125,200,10778
1:05:07.011,,-3521.3723,-2814.6079,-3144.8555,-1756.8886,-1401.9065,10884.3973,-1415.4047,-1048.0645,-906.0017,8942.8363,685.5608,-2098.9978,1832.1589,-1610.872,-162.7331,-141.1432,3197.5244,-3863.4631,-2980.1363,-4690.7924,-286.4426,3100.4436,2181.5137,-51.6943,315.9218,-4604.5985,1650.5209,2850.6523,798.8248,304.7223,386.521,579.8367,-2025.7137,-2780.2002,-3011.7671,-2179.0311,-1799.5167,2773.2304,344.3344,-1836.738,1222.273,12160.792,-1801.6131,-1822.78,5340.9157,-1118.2959,-3051.2872,-2160.3285,-1012.8109,10261.7303,-205.8209,1467.6691,-2758.4448,2821.8535,-825.2512,602.6587,-4270.7464,876.4674,-3647.73,-2618.6256,-1673.2509,1302.7844,-521.0806,735.4897,7063.8748,4635.6408,-39492224,-39492224,38.7509,714.528,-1048573.3125,-1048573.3125,200,10779
1:05:07.011,,-3523.9469,-2817.5319,-3147.3197,-1758.4518,-1402.2375,10882.6502,-1413.9887,-1048.7265,-909.2752,8941.4386,685.6528,-2100.9839,1830.7061,-1620.4716,-161.9791,-140.2421,3199.4002,-3860.1713,-2981.4971,-4691.5096,-285.6703,3101.3264,2185.063,-45.0555,317.062,-4604.4514,1653.1323,2856.1693,800.9213,303.4902,388.5071,582.0435,-2028.4538,-2781.0645,-3014.8934,-2179.6563,-1801.374,2772.789,341.6862,-1835.1197,1218.3191,12162.2448,-1802.2384,-1834.5864,5339.0032,-1116.8247,-3045.5311,-2159.8687,-1011.1006,10262.5946,-203.1911,1467.0255,-2755.7047,2825.8993,-824.3685,603.4311,-4268.9442,876.2283,-3651.5,-2619.7474,-1672.5521,1306.6831,-518.2854,735.5264,7069.1527,4632.1651,-39492224,-39492224,38.683,714.4894,-1048573.3125,-1048573.3125,200,10780
1:05:07.012,,-3525.8963,-2816.9986,-3146.6209,-1756.6496,-1402.2007,10880.7744,-1413.437,-1049.2414,-906.1121,8940.372,686.0022,-2101.131,1825.7408,-1619.7544,-169.6845,-140.6467,3201.7909,-3853.698,-2984.8809,-4691.951,-287.1598,3102.1539,2190.9846,-41.5798,315.4988,-4602.9434,1654.9713,2863.1391,799.303,299.0398,383.1005,583.6986,-2029.3733,-2784.8712,-3015.6473,-2182.0654,-1804.2245,2772.5683,340.2518,-1837.5288,1217.3812,12160.7736,-1802.551,-1847.772,5335.178,-1116.8615,-3038.5245,-2163.0686,-1009.7949,10264.4336,-198.3913,1465.0945,-2756.4403,2833.2737,-822.4744,603.854,-4269.9373,878.288,-3648.8518,-2619.9681,-1668.2121,1311.9794,-519.5911,738.2114,7072.1503,4634.3351,-39492224,-39492224,38.6137,714.5006,-1048573.3125,-1048573.3125,200,10781
